time (ms)	lx (deg)	ly (deg)	rx (deg)	ry (deg)
0.000	0.19177	0.22083	0.11664	0.48541
1.000	0.15618	0.20292	0.14234	0.56896
2.000	0.16014	0.17905	0.09292	0.53116
3.000	0.16014	0.18303	0.14432	0.60675
4.000	0.19770	0.21088	0.07315	0.55305
5.000	0.20956	0.18502	0.15025	0.62665
6.000	0.21549	0.22878	0.08897	0.58686
7.000	0.19770	0.17507	0.13444	0.52718
8.000	0.16607	0.24669	0.18584	0.47745
9.000	0.20956	0.21088	0.14827	0.56100
10.000	0.21154	0.14921	0.07908	0.58686
11.000	0.21945	0.19695	0.16607	0.52321
12.000	0.22142	0.19496	0.19375	0.57294
13.000	0.23526	0.20292	0.12653	0.57294
14.000	0.19375	0.20491	0.12060	0.47546
15.000	0.18979	0.18899	0.17200	0.50331
16.000	0.18781	0.19098	0.10676	0.54708
17.000	0.15618	0.19297	0.10874	0.50729
18.000	0.22538	0.19496	0.09687	0.56299
19.000	0.21549	0.20690	0.12850	0.54310
20.000	0.18979	0.14523	0.10478	0.58288
21.000	0.21352	0.19098	0.10083	0.57891
22.000	0.19770	0.20491	0.00198	0.55504
23.000	0.18979	0.21884	0.10083	0.55503
24.000	0.22735	0.17507	0.15816	0.53713
25.000	0.20956	0.20889	0.05338	0.59880
26.000	0.24515	0.25464	0.10083	0.54310
27.000	0.23131	0.21287	0.05931	0.58090
28.000	0.24515	0.20491	0.08897	0.62068
29.000	0.17595	0.21884	0.12060	0.63460
30.000	0.16804	0.20491	0.06722	0.52122
31.000	0.19375	0.22679	0.11071	0.57294
32.000	0.20561	0.20491	0.04943	0.55106
33.000	0.18584	0.26061	0.11269	0.59482
34.000	0.20758	0.20292	0.09687	0.57692
35.000	0.19572	0.23475	0.08699	0.57891
36.000	0.22735	0.23077	0.08303	0.61073
37.000	0.19968	0.21884	0.05140	0.55504
38.000	0.17398	0.22083	0.10280	0.61471
39.000	0.21747	0.20889	0.06920	0.58686
40.000	0.16804	0.21287	0.07513	0.62864
41.000	0.19968	0.20491	0.09094	0.56100
42.000	0.18584	0.22679	0.10478	0.55503
43.000	0.18584	0.18502	0.11664	0.62267
44.000	0.18584	0.20491	0.09687	0.57891
45.000	0.22735	0.20889	0.04943	0.59283
46.000	0.16607	0.24470	0.14432	0.55702
47.000	0.19968	0.21287	0.11664	0.51525
48.000	0.22735	0.19695	0.09687	0.56498
49.000	0.19375	0.21884	0.08501	0.54708
50.000	0.21549	0.20093	0.07908	0.60675
51.000	0.17200	0.21287	0.13048	0.55106
52.000	0.20561	0.21486	0.18584	0.54111
53.000	0.20758	0.18899	0.12060	0.53116
54.000	0.21154	0.19297	0.08699	0.54111
55.000	0.15618	0.21884	0.17793	0.58686
56.000	0.17793	0.21884	0.07908	0.57294
57.000	0.19572	0.18104	0.08699	0.54708
58.000	0.18979	0.16512	0.09292	0.63659
59.000	0.20758	0.20690	0.09292	0.59681
60.000	0.21352	0.19695	0.09687	0.58487
61.000	0.19375	0.22679	0.08303	0.64654
62.000	0.18584	0.19098	0.11071	0.59084
63.000	0.19375	0.18701	0.05733	0.55305
64.000	0.20956	0.18303	0.11467	0.55702
65.000	0.20561	0.16512	0.09687	0.62665
66.000	0.15421	0.18104	0.04745	0.61073
67.000	0.17200	0.16711	0.13246	0.55901
68.000	0.16211	0.14523	0.14432	0.61869
69.000	0.20363	0.20093	0.10280	0.55901
70.000	0.19968	0.16910	0.14630	0.57890
71.000	0.18188	0.18502	0.20363	0.57492
72.000	0.18584	0.11738	0.12850	0.52321
73.000	0.22142	0.16910	0.06326	0.53116
74.000	0.23329	0.12931	0.17991	0.62664
75.000	0.24119	0.15318	0.12850	0.49337
76.000	0.18584	0.18303	0.16211	0.62665
77.000	0.26096	0.21685	0.05338	0.57891
78.000	0.21549	0.18502	0.16607	0.58487
79.000	0.21945	0.19695	0.14630	0.57294
80.000	0.26294	0.17706	0.09885	0.60477
81.000	0.22142	0.18104	0.06326	0.56498
82.000	0.22933	0.19894	0.20956	0.58288
83.000	0.22340	0.16512	0.15421	0.64654
84.000	0.25899	0.21685	0.16409	0.60675
85.000	0.20956	0.18104	0.16804	0.59084
86.000	0.17991	0.16910	0.11862	0.54509
87.000	0.18979	0.15915	0.06920	0.52917
88.000	0.14827	0.16711	0.09687	0.48740
89.000	0.14234	0.05371	0.07908	0.46154
90.000	0.09885	0.02188	0.06129	0.41777
91.000	0.07315	0.00796	0.08897	0.34417
92.000	0.03361	-0.01989	0.02570	0.30040
93.000	0.03163	-0.06764	-0.02175	0.30040
94.000	-0.01977	-0.11738	0.00395	0.19894
95.000	-0.05338	-0.13727	-0.04943	0.19297
96.000	-0.10676	-0.17507	-0.10676	0.15319
97.000	-0.06722	-0.20292	-0.13048	0.14523
98.000	-0.12653	-0.26260	-0.15816	0.15716
99.000	-0.07908	-0.26459	-0.14037	0.12533
100.000	-0.05338	-0.24669	-0.12850	0.09350
101.000	-0.10478	-0.24271	-0.08501	0.12136
102.000	-0.08106	-0.28250	-0.11269	0.14324
103.000	0.00198	-0.24072	-0.03361	0.14324
104.000	0.00989	-0.22679	0.02175	0.19297
105.000	0.07117	-0.17905	-0.05338	0.18104
106.000	0.06326	-0.16711	-0.02175	0.20292
107.000	0.14234	-0.16910	0.06920	0.22481
108.000	0.14037	-0.11738	0.01186	0.29443
109.000	0.18979	-0.13528	0.04547	0.29642
110.000	0.20956	-0.10942	0.13444	0.29045
111.000	0.17595	-0.09549	0.11862	0.27653
112.000	0.19770	-0.07361	0.12653	0.28449
113.000	0.19770	-0.03979	0.06722	0.32030
114.000	0.21747	-0.03183	0.03954	0.35213
115.000	0.17200	-0.04178	0.07513	0.26260
116.000	0.15816	-0.04775	0.02768	0.32427
117.000	0.12850	-0.06565	0.04745	0.33621
118.000	0.08303	-0.10544	0.03559	0.29443
119.000	0.11467	-0.01989	-0.07315	0.36406
120.000	0.12653	-0.01194	0.01186	0.26061
121.000	0.09885	-0.06963	0.01186	0.31035
122.000	0.10676	-0.06764	0.00000	0.29046
123.000	0.07513	-0.07361	0.03756	0.28847
124.000	0.05733	-0.07162	-0.02175	0.28051
125.000	0.10478	-0.08157	0.03163	0.28847
126.000	0.06524	-0.11738	0.00791	0.22083
127.000	0.08501	-0.08555	-0.00198	0.30637
128.000	0.12850	-0.10345	0.00198	0.26857
129.000	0.09885	-0.08157	-0.00198	0.20491
130.000	0.08699	-0.12334	0.00593	0.28449
131.000	0.07710	-0.14921	-0.03559	0.19894
132.000	0.09490	-0.12136	-0.02372	0.27852
133.000	0.06129	-0.12931	-0.00198	0.22282
134.000	0.09490	-0.12533	0.01384	0.22878
135.000	0.06524	-0.14324	-0.00791	0.25067
136.000	0.08501	-0.15716	0.00395	0.21884
137.000	0.07513	-0.15120	0.01186	0.24271
138.000	0.11862	-0.12931	0.09490	0.23674
139.000	0.11467	-0.09947	0.02570	0.27056
140.000	0.06129	-0.13130	0.04745	0.22679
141.000	0.07117	-0.12334	-0.02175	0.22282
142.000	0.11862	-0.11539	-0.00593	0.26459
143.000	0.08699	-0.12533	0.00791	0.22282
144.000	0.06920	-0.12931	-0.05536	0.25862
145.000	0.09094	-0.16711	0.08106	0.26857
146.000	0.07117	-0.15319	-0.08897	0.21884
147.000	0.09885	-0.13727	-0.00198	0.20690
148.000	0.06326	-0.12732	-0.02768	0.27852
149.000	0.12060	-0.16910	-0.01779	0.27056
150.000	0.08699	-0.17109	-0.06129	0.27255
151.000	0.09885	-0.16313	-0.00593	0.24072
152.000	0.10874	-0.15915	-0.02570	0.19496
153.000	0.08303	-0.13329	0.07908	0.22480
154.000	0.11862	-0.19496	0.02768	0.22878
155.000	0.08303	-0.16512	0.09490	0.18303
156.000	0.09687	-0.20093	0.00000	0.21685
157.000	0.05733	-0.17109	0.00791	0.22481
158.000	0.10874	-0.14523	0.04745	0.21088
159.000	0.08106	-0.09947	0.01977	0.20889
160.000	0.06129	-0.14722	0.03361	0.19099
161.000	0.12060	-0.14324	0.04152	0.23077
162.000	0.06129	-0.14125	0.04547	0.24470
163.000	0.10083	-0.12732	0.01582	0.28250
164.000	0.06524	-0.15319	0.06722	0.18502
165.000	0.04349	-0.16910	0.06524	0.27255
166.000	0.09687	-0.09350	0.00989	0.25266
167.000	0.04745	-0.15319	0.02175	0.25863
168.000	0.06326	-0.14125	0.01384	0.20093
169.000	0.08897	-0.13528	0.01186	0.25664
170.000	0.10676	-0.14324	0.08897	0.27056
171.000	0.09490	-0.15120	0.00395	0.21486
172.000	0.12653	-0.13329	0.11467	0.28051
173.000	0.11862	-0.17308	0.09094	0.21287
174.000	0.07315	-0.17706	-0.03756	0.28847
175.000	0.09490	-0.16711	0.02570	0.29046
176.000	0.10478	-0.14921	0.01384	0.23475
177.000	0.07710	-0.15120	0.07710	0.25465
178.000	0.05536	-0.16313	-0.02175	0.29046
179.000	0.09094	-0.17905	0.04547	0.30836
180.000	0.09292	-0.15120	-0.02372	0.31035
181.000	0.09687	-0.11539	-0.02570	0.26260
182.000	0.07315	-0.15319	-0.00198	0.29841
183.000	0.11664	-0.13528	0.03163	0.25862
184.000	0.10083	-0.15518	0.01582	0.28847
185.000	0.10280	-0.14523	0.00593	0.25863
186.000	0.11071	-0.13130	0.02570	0.27056
187.000	0.13444	-0.12931	0.10478	0.22679
188.000	0.13839	-0.16313	0.01384	0.23873
189.000	0.12653	-0.13727	0.02768	0.26658
190.000	0.10676	-0.14125	0.04349	0.23873
191.000	0.09687	-0.14125	0.02570	0.29642
192.000	0.13048	-0.15319	0.00593	0.24868
193.000	0.08897	-0.18701	0.00000	0.27255
194.000	0.10083	-0.16114	-0.03163	0.26061
195.000	0.04349	-0.15915	0.01582	0.28648
196.000	0.11467	-0.13528	0.04943	0.29046
197.000	0.07315	-0.13528	0.04152	0.31433
198.000	0.13839	-0.16910	0.04943	0.23276
199.000	0.12455	-0.16114	0.03954	0.26459
200.000	0.11862	-0.14324	0.06129	0.19297
201.000	0.12455	-0.18900	0.08303	0.27255
202.000	0.14037	-0.16512	0.06920	0.31035
203.000	0.12257	-0.17109	0.04943	0.24868
204.000	0.08501	-0.16114	-0.01779	0.24669
205.000	0.10676	-0.12136	0.00395	0.24271
206.000	0.10676	-0.20889	0.00198	0.27852
207.000	0.11664	-0.14125	0.00989	0.24470
208.000	0.09687	-0.17109	0.05733	0.23276
209.000	0.10874	-0.19098	-0.04152	0.21088
210.000	0.06920	-0.16910	0.04943	0.27255
211.000	0.07513	-0.18303	0.06524	0.21287
212.000	0.12455	-0.14722	0.03163	0.27852
213.000	0.10874	-0.17507	0.01384	0.23077
214.000	0.12060	-0.18900	0.03163	0.17905
215.000	0.09490	-0.15518	0.09292	0.25266
216.000	0.13048	-0.15716	0.00791	0.24868
217.000	0.07710	-0.22083	0.02570	0.21685
218.000	0.12060	-0.14921	0.04745	0.25465
219.000	0.07710	-0.19496	0.07710	0.25862
220.000	0.10280	-0.13926	0.05536	0.23276
221.000	0.08106	-0.18701	0.02372	0.16512
222.000	0.09094	-0.13727	0.05536	0.23475
223.000	0.09292	-0.17706	0.03163	0.24669
224.000	0.08106	-0.19099	0.00000	0.22481
225.000	0.05536	-0.14722	0.04943	0.16512
226.000	0.04943	-0.20690	0.00989	0.26857
227.000	0.07117	-0.17109	0.02570	0.19894
228.000	0.10874	-0.14523	0.02570	0.22083
229.000	0.07117	-0.16114	0.03163	0.22679
230.000	0.10083	-0.13926	0.05733	0.21088
231.000	0.12257	-0.21486	0.06326	0.23674
232.000	0.13839	-0.15120	0.03559	0.18502
233.000	0.12257	-0.11937	0.10478	0.23475
234.000	0.11664	-0.15716	0.02175	0.17109
235.000	0.11664	-0.16313	0.05931	0.21685
236.000	0.11269	-0.16313	0.10083	0.21884
237.000	0.13246	-0.15518	0.10676	0.22282
238.000	0.10083	-0.13727	0.03559	0.22481
239.000	0.14037	-0.14921	0.05338	0.19894
240.000	0.09292	-0.13926	0.03756	0.20093
241.000	0.13246	-0.14921	-0.00395	0.23077
242.000	0.07513	-0.16910	0.04745	0.19099
243.000	0.11467	-0.14722	0.04152	0.21884
244.000	0.10874	-0.13926	0.01186	0.20690
245.000	0.08303	-0.17109	0.06326	0.26857
246.000	0.11467	-0.16313	0.03756	0.19099
247.000	0.06129	-0.19496	0.01582	0.19496
248.000	0.08897	-0.18303	0.07315	0.19894
249.000	0.08303	-0.21287	0.03756	0.19297
250.000	0.09292	-0.22282	0.02570	0.17308
251.000	0.09687	-0.15716	0.02768	0.20690
252.000	0.07908	-0.19099	0.10676	0.20093
253.000	0.08303	-0.20889	0.02966	0.15915
254.000	0.11467	-0.19098	0.07710	0.11738
255.000	0.08106	-0.19695	0.02768	0.20093
256.000	0.09292	-0.18303	0.07117	0.18502
257.000	0.05140	-0.20889	0.02175	0.11539
258.000	0.06722	-0.19496	0.01186	0.17706
259.000	0.08699	-0.18104	0.04745	0.15915
260.000	0.07513	-0.19695	0.03559	0.17109
261.000	0.08501	-0.18701	0.03361	0.20093
262.000	0.12257	-0.14523	0.04745	0.23674
263.000	0.11467	-0.17905	0.07513	0.17706
264.000	0.14432	-0.16711	-0.00593	0.20690
265.000	0.14234	-0.18701	0.07513	0.23475
266.000	0.11862	-0.17706	0.08106	0.24271
267.000	0.09885	-0.18900	0.07117	0.17905
268.000	0.11664	-0.19695	0.04349	0.19894
269.000	0.14037	-0.16512	0.06326	0.25862
270.000	0.09094	-0.19894	0.06920	0.18104
271.000	0.10478	-0.13329	0.04745	0.23077
272.000	0.13444	-0.16512	0.10083	0.18900
273.000	0.13839	-0.18104	0.07315	0.21884
274.000	0.14432	-0.18900	0.05733	0.18701
275.000	0.08699	-0.21088	0.08501	0.19297
276.000	0.07315	-0.16711	0.04349	0.19496
277.000	0.08303	-0.17905	-0.01977	0.28847
278.000	0.12257	-0.16910	0.05931	0.15518
279.000	0.12850	-0.19894	0.10280	0.20093
280.000	0.10083	-0.19496	0.16804	0.19297
281.000	0.11071	-0.17109	-0.00791	0.16114
282.000	0.16014	-0.19496	0.02966	0.18104
283.000	0.12257	-0.18303	0.02570	0.13329
284.000	0.11467	-0.22083	0.05140	0.23276
285.000	0.10478	-0.19098	0.05338	0.20690
286.000	0.12060	-0.19297	0.01977	0.21685
287.000	0.10280	-0.18900	0.10083	0.17905
288.000	0.14827	-0.19098	0.10676	0.18701
289.000	0.10478	-0.15915	0.11862	0.15518
290.000	0.11071	-0.22480	0.06920	0.13727
291.000	0.12455	-0.20292	0.06326	0.16910
292.000	0.09687	-0.21486	0.08501	0.13329
293.000	0.15816	-0.17109	0.12060	0.17109
294.000	0.13444	-0.18701	0.00198	0.16910
295.000	0.09687	-0.18502	0.03559	0.17905
296.000	0.10280	-0.15716	0.04745	0.18104
297.000	0.10676	-0.16910	0.07908	0.15120
298.000	0.07710	-0.19099	0.02570	0.18502
299.000	0.12850	-0.14921	0.05338	0.14722
300.000	0.12653	-0.17507	0.12653	0.17905
301.000	0.11862	-0.19297	0.01779	0.12533
302.000	0.13641	-0.17706	0.09094	0.16512
303.000	0.14037	-0.19695	0.11664	0.14324
304.000	0.12257	-0.21486	0.07710	0.18104
305.000	0.14037	-0.12533	0.11862	0.21088
306.000	0.14234	-0.17905	0.11467	0.16711
307.000	0.14432	-0.16512	0.07710	0.13130
308.000	0.14037	-0.15716	0.09094	0.17507
309.000	0.11269	-0.19894	0.07117	0.17109
310.000	0.11269	-0.19695	0.07513	0.22282
311.000	0.10478	-0.17706	0.01977	0.18701
312.000	0.14827	-0.17706	0.06326	0.20292
313.000	0.12060	-0.16313	0.15618	0.15319
314.000	0.09687	-0.17109	0.02768	0.17308
315.000	0.10874	-0.23077	0.00989	0.18502
316.000	0.10676	-0.20690	0.08897	0.24271
317.000	0.10280	-0.20093	0.07710	0.26857
318.000	0.10676	-0.14921	0.09490	0.18502
319.000	0.12455	-0.22878	0.14827	0.21287
320.000	0.09292	-0.14324	0.10083	0.15319
321.000	0.14037	-0.13329	0.10676	0.13727
322.000	0.10083	-0.16114	0.00395	0.20292
323.000	0.16409	-0.17905	0.07117	0.18303
324.000	0.16014	-0.16711	0.08106	0.14523
325.000	0.12455	-0.18303	0.09490	0.17905
326.000	0.17398	-0.15120	0.06920	0.20491
327.000	0.13641	-0.16114	0.07513	0.22083
328.000	0.11071	-0.22282	0.11467	0.19894
329.000	0.14827	-0.12334	0.10083	0.23674
330.000	0.13641	-0.22083	0.06524	0.19496
331.000	0.13641	-0.15120	0.12060	0.21287
332.000	0.16607	-0.17905	0.09094	0.18900
333.000	0.15025	-0.18701	0.13641	0.17507
334.000	0.19968	-0.19695	0.09490	0.14324
335.000	0.30050	-0.20093	0.13839	0.23077
336.000	0.34004	-0.17109	0.23922	0.23873
337.000	0.43493	-0.14522	0.39342	0.25265
338.000	0.49819	-0.11936	0.34597	0.17109
339.000	0.57924	-0.19495	0.42109	0.24469
340.000	0.62668	-0.15517	0.49819	0.24867
341.000	0.69389	-0.13925	0.54564	0.24270
342.000	0.73540	-0.16113	0.61285	0.23872
343.000	0.77494	-0.16511	0.59110	0.20092
344.000	0.75122	-0.16312	0.68994	0.26855
345.000	0.75122	-0.13925	0.69389	0.17307
346.000	0.78087	-0.11140	0.60889	0.19495
347.000	0.69982	-0.10742	0.63855	0.24071
348.000	0.65831	-0.05968	0.52389	0.18501
349.000	0.59703	-0.10941	0.56738	0.16114
350.000	0.55947	-0.10345	0.43493	0.20292
351.000	0.50017	-0.12533	0.45075	0.20689
352.000	0.46261	-0.10146	0.39342	0.18103
353.000	0.39737	-0.13130	0.39935	0.20292
354.000	0.36969	-0.14721	0.29062	0.19695
355.000	0.35783	-0.17507	0.28271	0.19496
356.000	0.39935	-0.15318	0.29062	0.20889
357.000	0.37563	-0.20690	0.32225	0.15318
358.000	0.34399	-0.19098	0.34399	0.21088
359.000	0.34993	-0.20491	0.35190	0.23077
360.000	0.41714	-0.15517	0.31632	0.23276
361.000	0.38156	-0.14324	0.37958	0.23077
362.000	0.44679	-0.15517	0.38749	0.29045
363.000	0.42702	-0.17308	0.33016	0.23077
364.000	0.43296	-0.17109	0.30643	0.29841
365.000	0.41516	-0.16512	0.43889	0.26856
366.000	0.50017	-0.16313	0.34795	0.26061
367.000	0.46261	-0.14522	0.35783	0.28050
368.000	0.41319	-0.12334	0.33609	0.27851
369.000	0.45865	-0.14920	0.31829	0.24072
370.000	0.48831	-0.13926	0.39342	0.26658
371.000	0.49028	-0.14124	0.40726	0.25862
372.000	0.49424	-0.11936	0.40330	0.23674
373.000	0.50017	-0.13528	0.36376	0.29642
374.000	0.55157	-0.09151	0.38551	0.27056
375.000	0.50808	-0.13528	0.41319	0.29244
376.000	0.51598	-0.10743	0.34993	0.30239
377.000	0.51994	-0.16114	0.46459	0.31233
378.000	0.51598	-0.09549	0.40528	0.32626
379.000	0.51005	-0.13528	0.38946	0.30636
380.000	0.52982	-0.16711	0.42702	0.28846
381.000	0.51598	-0.15517	0.48633	0.27453
382.000	0.55157	-0.16313	0.47447	0.33819
383.000	0.57529	-0.14124	0.47052	0.28448
384.000	0.50215	-0.14721	0.50215	0.27055
385.000	0.51203	-0.15915	0.38749	0.31631
386.000	0.53971	-0.15119	0.44679	0.21485
387.000	0.52389	-0.16909	0.49622	0.29641
388.000	0.51796	-0.16909	0.38551	0.29045
389.000	0.54168	-0.16313	0.47052	0.26061
390.000	0.51994	-0.16114	0.38353	0.31631
391.000	0.49622	-0.13727	0.42109	0.31034
392.000	0.54168	-0.17108	0.38749	0.29841
393.000	0.56540	-0.10543	0.45272	0.28050
394.000	0.56936	-0.12135	0.46063	0.24469
395.000	0.51994	-0.13727	0.42702	0.30238
396.000	0.52191	-0.17307	0.43098	0.24071
397.000	0.49819	-0.13727	0.47842	0.28249
398.000	0.50412	-0.16711	0.51598	0.24668
399.000	0.50808	-0.14323	0.44877	0.35609
400.000	0.52191	-0.14920	0.48831	0.27254
401.000	0.53378	-0.19496	0.43098	0.26260
402.000	0.52784	-0.17904	0.39737	0.33023
403.000	0.48435	-0.19098	0.45470	0.34814
404.000	0.50808	-0.18103	0.39935	0.25663
405.000	0.53773	-0.12732	0.40330	0.25265
406.000	0.51203	-0.16512	0.46063	0.23077
407.000	0.49622	-0.12533	0.44086	0.30437
408.000	0.51401	-0.13329	0.50412	0.31630
409.000	0.51994	-0.17108	0.44086	0.29045
410.000	0.53180	-0.15716	0.43691	0.31034
411.000	0.50215	-0.14721	0.40923	0.26260
412.000	0.49819	-0.14721	0.38156	0.26857
413.000	0.51401	-0.16711	0.44877	0.26459
414.000	0.53575	-0.15716	0.42505	0.31631
415.000	0.52191	-0.12732	0.44086	0.31233
416.000	0.51401	-0.16114	0.40528	0.31034
417.000	0.51401	-0.15915	0.37958	0.32825
418.000	0.52389	-0.09350	0.53575	0.24270
419.000	0.49622	-0.15517	0.45865	0.25862
420.000	0.51598	-0.12533	0.40726	0.36007
421.000	0.46656	-0.07560	0.46063	0.36206
422.000	0.46656	-0.16910	0.46459	0.31631
423.000	0.49028	-0.10941	0.38156	0.29642
424.000	0.49226	-0.12135	0.45075	0.30835
425.000	0.50412	-0.14323	0.46063	0.32824
426.000	0.46261	-0.14920	0.44679	0.25663
427.000	0.47052	-0.11737	0.45272	0.31233
428.000	0.47052	-0.15915	0.50017	0.29442
429.000	0.49622	-0.14124	0.41912	0.29244
430.000	0.47249	-0.13528	0.40528	0.33222
431.000	0.45470	-0.13130	0.44482	0.29244
432.000	0.48040	-0.16114	0.39737	0.23674
433.000	0.49028	-0.14522	0.44284	0.29641
434.000	0.46063	-0.09748	0.48238	0.25862
435.000	0.46459	-0.11936	0.45865	0.36604
436.000	0.50610	-0.06366	0.45272	0.30238
437.000	0.47842	-0.14323	0.39737	0.25265
438.000	0.45075	-0.08355	0.37167	0.32228
439.000	0.48435	-0.13329	0.45470	0.27055
440.000	0.47052	-0.11538	0.44877	0.26657
441.000	0.46063	-0.10743	0.44877	0.33421
442.000	0.52191	-0.04973	0.44284	0.27055
443.000	0.48831	-0.11339	0.49819	0.34018
444.000	0.44877	-0.05769	0.41319	0.29244
445.000	0.48238	-0.10942	0.45075	0.33421
446.000	0.49226	-0.12135	0.42702	0.28448
447.000	0.52587	-0.07361	0.37958	0.24867
448.000	0.50412	-0.08952	0.42702	0.28846
449.000	0.51796	-0.10146	0.46459	0.28050
450.000	0.50808	-0.10146	0.48831	0.33421
451.000	0.52784	-0.10941	0.41714	0.30636
452.000	0.46656	-0.10942	0.43691	0.32427
453.000	0.53575	-0.03382	0.45272	0.29045
454.000	0.51598	-0.08753	0.43493	0.28448
455.000	0.53180	-0.06565	0.37958	0.28448
456.000	0.49819	-0.07560	0.40923	0.28846
457.000	0.48831	-0.08355	0.49424	0.24071
458.000	0.48435	-0.07759	0.42900	0.29244
459.000	0.49819	-0.07361	0.47645	0.32028
460.000	0.49226	-0.06565	0.45470	0.28050
461.000	0.51203	-0.10146	0.46459	0.35211
462.000	0.51796	-0.10345	0.50412	0.28647
463.000	0.56343	-0.08156	0.38156	0.25862
464.000	0.53575	-0.04377	0.45272	0.29840
465.000	0.53971	-0.10345	0.42702	0.31034
466.000	0.50215	-0.04377	0.44877	0.24867
467.000	0.49819	-0.05570	0.45272	0.26458
468.000	0.51005	-0.09549	0.48633	0.27851
469.000	0.53378	-0.09151	0.40133	0.33819
470.000	0.51598	-0.09350	0.44877	0.33023
471.000	0.53180	-0.07758	0.49622	0.29442
472.000	0.53378	-0.06764	0.45668	0.23673
473.000	0.50215	-0.08156	0.46656	0.32227
474.000	0.49226	-0.06764	0.50610	0.27652
475.000	0.48633	-0.09350	0.41912	0.27453
476.000	0.51203	-0.04377	0.51598	0.30835
477.000	0.51401	-0.09151	0.45668	0.26856
478.000	0.53378	-0.05371	0.45272	0.24469
479.000	0.50017	-0.10743	0.41714	0.20292
480.000	0.50412	-0.08156	0.50808	0.22878
481.000	0.52784	-0.04973	0.49424	0.24867
482.000	0.51005	-0.09151	0.49226	0.29840
483.000	0.46459	-0.07957	0.49424	0.29243
484.000	0.53180	-0.06963	0.47249	0.26061
485.000	0.50412	-0.02586	0.51598	0.32426
486.000	0.51598	-0.06764	0.48831	0.21883
487.000	0.48435	-0.06366	0.52191	0.24867
488.000	0.47645	-0.07759	0.50412	0.20291
489.000	0.48435	-0.07162	0.47842	0.31432
490.000	0.49819	-0.10345	0.44086	0.30238
491.000	0.48435	-0.06167	0.46459	0.29244
492.000	0.50017	-0.10544	0.48238	0.28050
493.000	0.49028	-0.06366	0.43296	0.30835
494.000	0.51994	-0.13130	0.54168	0.26060
495.000	0.47052	-0.09350	0.52587	0.22480
496.000	0.47447	-0.09350	0.49226	0.25862
497.000	0.46063	-0.09350	0.48238	0.25265
498.000	0.48040	-0.07361	0.49028	0.21087
499.000	0.49622	-0.06764	0.46063	0.27453
500.000	0.51796	-0.08952	0.50808	0.29840
501.000	0.46854	-0.13329	0.46854	0.27851
502.000	0.51203	-0.07162	0.45865	0.30437
503.000	0.49622	-0.06565	0.48831	0.19496
504.000	0.48831	-0.05371	0.50215	0.31432
505.000	0.49819	-0.04973	0.47842	0.15716
506.000	0.54959	-0.08355	0.45865	0.22281
507.000	0.51598	-0.08355	0.48633	0.28448
508.000	0.51796	-0.02586	0.52191	0.30238
509.000	0.55552	-0.06366	0.55750	0.31829
510.000	0.51005	-0.06565	0.44086	0.20888
511.000	0.52191	-0.09549	0.54761	0.27453
512.000	0.49622	-0.02785	0.52191	0.25464
513.000	0.54168	-0.05570	0.54366	0.29243
514.000	0.52389	-0.07361	0.52389	0.22281
515.000	0.52982	-0.04178	0.46261	0.23474
516.000	0.52389	-0.05172	0.53773	0.22877
517.000	0.51598	-0.08554	0.53773	0.24469
518.000	0.53180	-0.06565	0.44679	0.29840
519.000	0.51203	-0.08554	0.57331	0.22082
520.000	0.52784	-0.06764	0.59308	0.21087
521.000	0.52587	-0.07361	0.48040	0.30835
522.000	0.52982	-0.08952	0.43889	0.23673
523.000	0.51005	-0.07560	0.53378	0.26259
524.000	0.51598	-0.01989	0.49028	0.25862
525.000	0.50017	-0.03780	0.53180	0.24071
526.000	0.47645	-0.07560	0.48040	0.26259
527.000	0.47842	-0.07957	0.44877	0.26856
528.000	0.48040	-0.06764	0.50215	0.28845
529.000	0.48633	-0.04377	0.45075	0.30437
530.000	0.53773	-0.00597	0.55947	0.28248
531.000	0.48040	-0.03183	0.40528	0.27453
532.000	0.47249	-0.05570	0.48238	0.27055
533.000	0.49819	-0.04774	0.46261	0.24469
534.000	0.51005	-0.05570	0.57133	0.28845
535.000	0.55354	-0.03581	0.47645	0.22679
536.000	0.50808	-0.04377	0.51796	0.27055
537.000	0.50412	-0.07361	0.51203	0.26458
538.000	0.53971	-0.04377	0.50808	0.29641
539.000	0.48831	-0.03382	0.50808	0.26060
540.000	0.48831	-0.08156	0.52587	0.24270
541.000	0.50412	-0.02387	0.48633	0.23275
542.000	0.50215	-0.02785	0.53180	0.26259
543.000	0.47447	-0.04576	0.43691	0.30437
544.000	0.48633	-0.02785	0.51598	0.25066
545.000	0.45668	-0.04377	0.38946	0.29841
546.000	0.51203	-0.03979	0.45272	0.23077
547.000	0.47842	-0.03382	0.51994	0.28050
548.000	0.49819	-0.01393	0.50808	0.25464
549.000	0.52389	-0.00398	0.43889	0.27254
550.000	0.49622	-0.05371	0.49424	0.24071
551.000	0.51203	-0.07957	0.53575	0.29442
552.000	0.52191	-0.02785	0.55552	0.25662
553.000	0.51598	-0.06167	0.53773	0.22877
554.000	0.51005	-0.05769	0.48238	0.27453
555.000	0.51796	-0.04377	0.53180	0.25066
556.000	0.50610	-0.07162	0.48238	0.25265
557.000	0.44284	-0.00796	0.50610	0.30636
558.000	0.54168	0.00199	0.52982	0.27453
559.000	0.44877	-0.05371	0.53378	0.34216
560.000	0.45075	-0.09549	0.50808	0.31630
561.000	0.47052	-0.02586	0.45272	0.29442
562.000	0.49424	-0.04973	0.52389	0.27652
563.000	0.49622	-0.03581	0.56738	0.25264
564.000	0.46854	-0.03183	0.58122	0.29442
565.000	0.48633	-0.01591	0.56343	0.26259
566.000	0.48831	0.00398	0.54564	0.34017
567.000	0.49819	-0.08554	0.50215	0.31233
568.000	0.52784	-0.05570	0.54761	0.32426
569.000	0.49424	-0.04178	0.49028	0.27652
570.000	0.47842	-0.05769	0.48831	0.31631
571.000	0.49819	-0.04973	0.49226	0.32625
572.000	0.44086	0.00796	0.51401	0.32227
573.000	0.48040	-0.04178	0.49028	0.28249
574.000	0.47249	-0.03581	0.58122	0.33420
575.000	0.48633	-0.05371	0.50017	0.33421
576.000	0.49226	-0.04973	0.57529	0.28248
577.000	0.49028	-0.04377	0.62471	0.31431
578.000	0.49028	-0.03581	0.53773	0.24469
579.000	0.48040	-0.06366	0.55552	0.36404
580.000	0.49226	-0.04377	0.52191	0.35211
581.000	0.49424	-0.06167	0.51203	0.37399
582.000	0.49819	-0.02188	0.51401	0.27851
583.000	0.51005	0.00995	0.50808	0.32227
584.000	0.49226	0.02984	0.59110	0.29044
585.000	0.48633	0.01591	0.51401	0.29442
586.000	0.53180	-0.01194	0.42109	0.33819
587.000	0.48633	0.00398	0.52389	0.35012
588.000	0.47645	-0.00995	0.52784	0.28845
589.000	0.48831	0.01989	0.51401	0.32426
590.000	0.43493	0.00398	0.54959	0.27851
591.000	0.50017	-0.01393	0.55354	0.33421
592.000	0.48831	0.02785	0.50610	0.30636
593.000	0.46854	-0.00796	0.57529	0.28447
594.000	0.50017	0.01989	0.49424	0.22281
595.000	0.48040	0.02586	0.57727	0.29840
596.000	0.43493	-0.00199	0.49819	0.34813
597.000	0.49028	0.00597	0.53180	0.23872
598.000	0.47052	0.02387	0.52191	0.22679
599.000	0.44877	-0.02387	0.59506	0.29442
600.000	0.48435	-0.03183	0.55354	0.26856
601.000	0.50412	-0.00796	0.52784	0.28646
602.000	0.42307	0.00796	0.56343	0.32227
603.000	0.45272	0.00000	0.59506	0.33023
604.000	0.46656	0.01790	0.48238	0.33023
605.000	0.49028	0.00199	0.46854	0.28249
606.000	0.45272	0.01591	0.49424	0.30238
607.000	0.46854	0.00000	0.54366	0.31034
608.000	0.50215	-0.01989	0.54761	0.24867
609.000	0.47645	-0.00796	0.53575	0.28845
610.000	0.46261	0.01591	0.59308	0.27254
611.000	0.45668	-0.00398	0.47645	0.30238
612.000	0.50017	0.01393	0.52587	0.30437
613.000	0.47645	0.00597	0.56145	0.29044
614.000	0.48238	-0.03581	0.52587	0.24668
615.000	0.48831	0.00199	0.51203	0.23275
616.000	0.47842	-0.00597	0.46656	0.29243
617.000	0.47249	-0.00597	0.54564	0.28248
618.000	0.48831	0.00597	0.53575	0.24469
619.000	0.49424	0.01194	0.55947	0.20888
620.000	0.47249	0.03183	0.51203	0.24867
621.000	0.49819	0.01790	0.53180	0.19893
622.000	0.48238	0.03581	0.52587	0.27254
623.000	0.48238	-0.00199	0.55157	0.25861
624.000	0.45865	0.01989	0.60296	0.27254
625.000	0.47249	0.01790	0.57529	0.32426
626.000	0.52191	0.03979	0.55552	0.28646
627.000	0.51994	0.03382	0.50412	0.22480
628.000	0.51005	0.00000	0.51203	0.23275
629.000	0.49226	0.03581	0.48831	0.26060
630.000	0.53180	0.01393	0.49819	0.30835
631.000	0.48435	0.01591	0.52389	0.26060
632.000	0.51203	0.03183	0.51005	0.22082
633.000	0.47842	0.01790	0.47842	0.26061
634.000	0.49028	0.05172	0.50808	0.21684
635.000	0.44482	0.04973	0.49424	0.26856
636.000	0.48435	0.00398	0.53180	0.22678
637.000	0.44877	0.04576	0.52191	0.22877
638.000	0.45470	0.06764	0.61285	0.28845
639.000	0.41912	0.04377	0.51796	0.23076
640.000	0.47645	0.05769	0.49226	0.28846
641.000	0.43493	0.02387	0.54564	0.30636
642.000	0.45865	0.03780	0.51005	0.24668
643.000	0.46854	0.03382	0.56540	0.24071
644.000	0.46656	0.01989	0.56540	0.25066
645.000	0.45470	0.07560	0.53180	0.35211
646.000	0.50610	0.10345	0.54761	0.30636
647.000	0.42702	0.01592	0.49028	0.30437
648.000	0.49226	0.03382	0.48435	0.29641
649.000	0.43889	0.04576	0.52191	0.26657
650.000	0.48040	0.08355	0.45470	0.28647
651.000	0.42109	0.00199	0.55354	0.31033
652.000	0.44679	0.06764	0.46656	0.25066
653.000	0.48238	0.03183	0.54564	0.22877
654.000	0.44679	0.02984	0.49226	0.37002
655.000	0.45668	0.03979	0.54761	0.30039
656.000	0.46459	0.03183	0.56936	0.29442
657.000	0.43296	0.01393	0.48435	0.24469
658.000	0.37958	-0.00796	0.54761	0.29840
659.000	0.43493	0.00995	0.63855	0.24667
660.000	0.48831	0.04178	0.56738	0.25861
661.000	0.48435	0.02387	0.64843	0.28845
662.000	0.51005	-0.00597	0.59901	0.30436
663.000	0.45075	0.03382	0.59110	0.26259
664.000	0.46854	0.04973	0.53378	0.21684
665.000	0.50412	0.06764	0.56738	0.32426
666.000	0.46656	0.05371	0.52982	0.30636
667.000	0.45865	0.08753	0.50808	0.33222
668.000	0.44877	0.02984	0.56145	0.27453
669.000	0.49226	0.07759	0.56343	0.18501
670.000	0.48633	0.05968	0.55157	0.30437
671.000	0.44284	0.09947	0.52389	0.29044
672.000	0.46261	0.05172	0.50215	0.28647
673.000	0.45075	0.06167	0.56738	0.27652
674.000	0.46854	0.05371	0.54761	0.30835
675.000	0.48238	0.06167	0.50215	0.17108
676.000	0.48633	0.06565	0.50017	0.25265
677.000	0.45075	0.01790	0.58517	0.25662
678.000	0.45865	0.02387	0.53971	0.27453
679.000	0.43691	0.04377	0.52389	0.22877
680.000	0.46459	0.03581	0.47645	0.26061
681.000	0.41714	0.04178	0.48238	0.23872
682.000	0.44482	0.02387	0.51203	0.26856
683.000	0.41319	0.06366	0.49819	0.18103
684.000	0.42702	0.07361	0.48238	0.24270
685.000	0.47447	0.02387	0.50017	0.24270
686.000	0.43691	0.06963	0.49226	0.22480
687.000	0.44877	0.05968	0.46656	0.28846
688.000	0.47052	0.10345	0.55552	0.29442
689.000	0.42702	0.09549	0.48040	0.24867
690.000	0.46459	0.04774	0.48435	0.28647
691.000	0.45668	0.09549	0.44482	0.27453
692.000	0.46459	0.06963	0.44086	0.19894
693.000	0.42307	0.08355	0.52784	0.27055
694.000	0.44086	0.06565	0.55354	0.29641
695.000	0.47447	0.07560	0.54366	0.21087
696.000	0.43098	0.05968	0.45865	0.24270
697.000	0.38946	0.06565	0.59308	0.22280
698.000	0.49028	0.06963	0.48831	0.20291
699.000	0.44482	0.07361	0.49424	0.21485
700.000	0.45865	0.06167	0.51005	0.22281
701.000	0.40726	0.06167	0.53773	0.25265
702.000	0.44284	0.08753	0.51401	0.28646
703.000	0.43098	0.07361	0.51005	0.21684
704.000	0.44086	0.04377	0.53971	0.26458
705.000	0.43691	0.10345	0.49622	0.22480
706.000	0.43691	0.08355	0.52389	0.25265
707.000	0.42900	0.09549	0.50215	0.26856
708.000	0.47447	0.09748	0.49226	0.26856
709.000	0.46656	0.05769	0.51796	0.24071
710.000	0.44086	0.07162	0.51203	0.25265
711.000	0.45865	0.11737	0.48040	0.24867
712.000	0.42505	0.06366	0.50412	0.22480
713.000	0.42109	0.06963	0.57133	0.22877
714.000	0.42505	0.07560	0.44679	0.22878
715.000	0.45272	0.02984	0.56145	0.22877
716.000	0.42109	0.04775	0.47249	0.24469
717.000	0.42900	0.03382	0.54761	0.24469
718.000	0.44086	0.02785	0.59110	0.25662
719.000	0.42900	0.05769	0.55354	0.18899
720.000	0.45272	0.07759	0.50412	0.20689
721.000	0.43889	0.07361	0.49424	0.21883
722.000	0.46854	0.06167	0.51796	0.26060
723.000	0.43889	0.07560	0.50808	0.26657
724.000	0.42900	0.09549	0.49622	0.22480
725.000	0.45470	0.06366	0.53971	0.19893
726.000	0.47645	0.06565	0.50215	0.20092
727.000	0.47249	0.09748	0.48435	0.17904
728.000	0.45470	0.10345	0.47645	0.25862
729.000	0.45470	0.06565	0.46656	0.26061
730.000	0.42505	0.10544	0.48435	0.23872
731.000	0.42307	0.12135	0.51005	0.24668
732.000	0.45865	0.13727	0.44482	0.23673
733.000	0.45865	0.10743	0.44086	0.27254
734.000	0.43493	0.08753	0.45272	0.26657
735.000	0.41714	0.09748	0.48435	0.19098
736.000	0.39935	0.08156	0.44877	0.20292
737.000	0.40923	0.09350	0.45075	0.31830
738.000	0.41516	0.11936	0.45470	0.24469
739.000	0.41121	0.10942	0.43098	0.26459
740.000	0.42702	0.10146	0.48040	0.23275
741.000	0.45865	0.10942	0.51401	0.20689
742.000	0.48040	0.13528	0.53575	0.24867
743.000	0.41121	0.06565	0.50412	0.22480
744.000	0.41516	0.08355	0.42307	0.27055
745.000	0.39144	0.05570	0.46854	0.26458
746.000	0.42505	0.10942	0.42307	0.24867
747.000	0.44877	0.09748	0.44482	0.26061
748.000	0.40528	0.04377	0.50017	0.23474
749.000	0.39935	0.09947	0.46459	0.20490
750.000	0.35190	0.09151	0.48633	0.18501
751.000	0.38749	0.08952	0.50412	0.29641
752.000	0.37958	0.07958	0.45865	0.26260
753.000	0.39144	0.06764	0.44679	0.23872
754.000	0.39144	0.08156	0.47645	0.20888
755.000	0.39342	0.05570	0.47645	0.26856
756.000	0.37365	0.07162	0.54959	0.31033
757.000	0.38946	0.10544	0.48238	0.26061
758.000	0.40133	0.08753	0.41121	0.26260
759.000	0.39342	0.08952	0.42109	0.23077
760.000	0.39539	0.03382	0.53575	0.30835
761.000	0.44284	0.07759	0.43098	0.27652
762.000	0.43691	0.08554	0.47842	0.27254
763.000	0.40528	0.09151	0.43889	0.26260
764.000	0.48238	0.11339	0.48633	0.31233
765.000	0.44679	0.06565	0.45075	0.24867
766.000	0.45668	0.08952	0.50215	0.28647
767.000	0.45272	0.08355	0.51994	0.22480
768.000	0.42109	0.11141	0.48040	0.32625
769.000	0.43691	0.14125	0.54366	0.27055
770.000	0.44679	0.13130	0.46459	0.31233
771.000	0.40133	0.07759	0.47052	0.24668
772.000	0.41319	0.11141	0.56145	0.31232
773.000	0.46261	0.08952	0.44877	0.28846
774.000	0.43493	0.06963	0.46261	0.20292
775.000	0.42505	0.09151	0.49028	0.29243
776.000	0.43098	0.09350	0.50412	0.22679
777.000	0.43889	0.05769	0.53773	0.21684
778.000	0.40923	0.06565	0.49622	0.31034
779.000	0.39539	0.07958	0.53773	0.27851
780.000	0.45272	0.03780	0.52587	0.29044
781.000	0.43296	0.02387	0.50215	0.23076
782.000	0.42109	0.05172	0.45470	0.20490
783.000	0.40923	0.02188	0.59506	0.26060
784.000	0.41319	0.06167	0.46656	0.26260
785.000	0.42505	0.09947	0.48435	0.22878
786.000	0.40133	0.01989	0.54564	0.22877
787.000	0.42702	0.04973	0.41912	0.24071
788.000	0.45075	0.09947	0.51598	0.22679
789.000	0.39539	0.06167	0.46459	0.25862
790.000	0.39342	0.07162	0.45272	0.24867
791.000	0.43296	0.06167	0.45272	0.27254
792.000	0.36772	0.08753	0.47052	0.28846
793.000	0.40923	0.06764	0.55354	0.25463
794.000	0.41912	0.05769	0.47052	0.30039
795.000	0.39539	0.07958	0.50215	0.28249
796.000	0.39539	0.08952	0.48040	0.29243
797.000	0.42307	0.09947	0.47447	0.22679
798.000	0.43296	0.10146	0.51994	0.29044
799.000	0.36376	0.05172	0.43493	0.22082
800.000	0.41714	0.06565	0.47249	0.26856
801.000	0.37563	0.05371	0.40726	0.20888
802.000	0.40726	0.07361	0.48831	0.24469
803.000	0.39342	0.03581	0.41121	0.27652
804.000	0.42505	0.10942	0.45470	0.22281
805.000	0.41121	0.04973	0.45668	0.23077
806.000	0.37365	0.06565	0.47052	0.23673
807.000	0.37760	0.07759	0.35783	0.22281
808.000	0.38551	0.07361	0.49226	0.28647
809.000	0.39737	0.07759	0.42505	0.21087
810.000	0.37167	0.09350	0.54959	0.29243
811.000	0.38353	0.11141	0.49226	0.17904
812.000	0.35586	0.09350	0.54564	0.23673
813.000	0.39342	0.11141	0.47842	0.17109
814.000	0.43493	0.10743	0.44284	0.26657
815.000	0.40923	0.12135	0.46854	0.26856
816.000	0.43889	0.09151	0.45075	0.21087
817.000	0.42307	0.10544	0.47249	0.28448
818.000	0.39342	0.07759	0.50610	0.25861
819.000	0.40133	0.08355	0.47249	0.24270
820.000	0.35981	0.10743	0.47842	0.23673
821.000	0.37760	0.09151	0.43691	0.27055
822.000	0.39737	0.08753	0.51796	0.28646
823.000	0.40726	0.09151	0.44679	0.25464
824.000	0.40330	0.07162	0.35388	0.18899
825.000	0.37760	0.07560	0.47052	0.26458
826.000	0.36574	0.07958	0.45470	0.26260
827.000	0.38551	0.07560	0.44877	0.24867
828.000	0.41912	0.09947	0.47052	0.29442
829.000	0.38551	0.08753	0.45470	0.26458
830.000	0.36772	0.09549	0.56343	0.21286
831.000	0.40330	0.09350	0.49028	0.24270
832.000	0.33609	0.08554	0.54366	0.20291
833.000	0.35586	0.07958	0.52587	0.27055
834.000	0.40330	0.10544	0.47249	0.24668
835.000	0.36969	0.11936	0.47052	0.29641
836.000	0.36969	0.09947	0.43889	0.27851
837.000	0.42109	0.13329	0.45470	0.22679
838.000	0.37958	0.13926	0.49028	0.28050
839.000	0.42307	0.11936	0.45865	0.23474
840.000	0.39935	0.09549	0.44086	0.29443
841.000	0.38156	0.08952	0.49028	0.23872
842.000	0.33806	0.07162	0.46656	0.28846
843.000	0.36376	0.13926	0.49226	0.20689
844.000	0.41516	0.10544	0.43691	0.30835
845.000	0.39342	0.12732	0.42505	0.24668
846.000	0.39935	0.08554	0.41319	0.23674
847.000	0.40726	0.14125	0.43098	0.24270
848.000	0.39144	0.09350	0.37958	0.26260
849.000	0.39737	0.12135	0.46854	0.23077
850.000	0.42505	0.10345	0.44284	0.28249
851.000	0.39539	0.11141	0.47052	0.25464
852.000	0.40528	0.09350	0.41912	0.27055
853.000	0.38749	0.10146	0.40528	0.32427
854.000	0.43493	0.05172	0.48435	0.26657
855.000	0.40528	0.10743	0.41121	0.24469
856.000	0.34993	0.08157	0.43691	0.25663
857.000	0.39539	0.09947	0.43691	0.28846
858.000	0.39144	0.15318	0.34993	0.25862
859.000	0.39737	0.09947	0.49028	0.29641
860.000	0.40923	0.09947	0.38749	0.28846
861.000	0.41912	0.12732	0.43889	0.26061
862.000	0.38946	0.08355	0.38946	0.24867
863.000	0.41319	0.13727	0.39342	0.28647
864.000	0.37760	0.09748	0.39342	0.25066
865.000	0.41319	0.09947	0.44086	0.27254
866.000	0.42307	0.09350	0.45470	0.22082
867.000	0.41319	0.10146	0.49819	0.30835
868.000	0.42307	0.09350	0.45272	0.23077
869.000	0.40330	0.12135	0.50412	0.31432
870.000	0.40528	0.11141	0.38749	0.31233
871.000	0.39935	0.08952	0.47052	0.33819
872.000	0.40923	0.12533	0.43296	0.28050
873.000	0.44086	0.13528	0.43889	0.25862
874.000	0.42307	0.13528	0.35190	0.32825
875.000	0.40330	0.17109	0.41912	0.25663
876.000	0.42702	0.08554	0.42307	0.23475
877.000	0.43691	0.13528	0.38946	0.30835
878.000	0.41714	0.20292	0.39539	0.27453
879.000	0.44679	0.15915	0.43098	0.23475
880.000	0.43098	0.17308	0.41912	0.30039
881.000	0.44086	0.16313	0.44482	0.20292
882.000	0.38749	0.15716	0.34399	0.24271
883.000	0.45075	0.16114	0.31632	0.25862
884.000	0.44679	0.15517	0.42109	0.34217
885.000	0.42109	0.18700	0.44679	0.29840
886.000	0.38353	0.17904	0.34202	0.35610
887.000	0.34597	0.18700	0.28666	0.38395
888.000	0.27282	0.26260	0.23526	0.48541
889.000	0.19572	0.32029	0.23329	0.46154
890.000	0.13641	0.37401	0.07315	0.53315
891.000	0.03954	0.52122	-0.08501	0.58288
892.000	-0.11269	0.65052	-0.20165	0.77782
893.000	-0.22340	0.80765	-0.43493	0.93294
894.000	-0.36772	0.95084	-0.50808	1.02640
895.000	-0.46459	1.10198	-0.69587	1.16954
896.000	-0.59901	1.32267	-0.72552	1.37234
897.000	-0.70180	1.48765	-0.73936	1.52143
898.000	-0.73936	1.60691	-0.89551	1.68635
899.000	-0.76901	1.76590	-0.90737	1.81552
900.000	-0.78087	1.82552	-1.00026	1.96052
901.000	-0.82040	1.89306	-0.91725	2.03606
902.000	-0.72552	2.02822	-0.97654	2.12145
903.000	-0.70575	2.06995	-0.84610	2.24071
904.000	-0.64448	2.07395	-0.86981	2.29829
905.000	-0.62075	2.05806	-0.81052	2.25264
906.000	-0.58913	2.02628	-0.81842	2.20497
907.000	-0.55157	2.02232	-0.76505	2.17918
908.000	-0.50017	2.01042	-0.72947	2.15933
909.000	-0.54564	1.93291	-0.71761	2.05603
910.000	-0.50610	1.88722	-0.73343	2.02225
911.000	-0.53180	1.83356	-0.74133	2.00437
912.000	-0.56343	1.78982	-0.60099	1.87328
913.000	-0.56145	1.76796	-0.64645	1.87922
914.000	-0.58517	1.73019	-0.64843	1.79775
915.000	-0.58122	1.74013	-0.63262	1.74409
916.000	-0.64843	1.69241	-0.68401	1.72817
917.000	-0.66227	1.65862	-0.66622	1.68644
918.000	-0.65041	1.66856	-0.66622	1.68247
919.000	-0.67413	1.63675	-0.72157	1.70828
920.000	-0.64052	1.62284	-0.74529	1.70231
921.000	-0.68599	1.64469	-0.68203	1.62879
922.000	-0.70575	1.63872	-0.76703	1.74007
923.000	-0.70575	1.56518	-0.71564	1.72617
924.000	-0.71366	1.63673	-0.80261	1.75396
925.000	-0.72354	1.62083	-0.72947	1.75201
926.000	-0.68203	1.61488	-0.78482	1.78179
927.000	-0.68401	1.63476	-0.75122	1.79174
928.000	-0.68796	1.65861	-0.78284	1.76590
929.000	-0.72354	1.65859	-0.82040	1.82947
930.000	-0.65634	1.67651	-0.78087	1.81558
931.000	-0.70378	1.69239	-0.88563	1.92283
932.000	-0.66424	1.76197	-0.79075	1.85333
933.000	-0.75122	1.74802	-0.75319	1.90700
934.000	-0.67610	1.77985	-0.84412	1.91689
935.000	-0.72354	1.78182	-0.86388	1.90894
936.000	-0.68994	1.79574	-0.82633	1.92684
937.000	-0.66424	1.88319	-0.85796	1.91887
938.000	-0.69587	1.84344	-0.93504	1.97447
939.000	-0.74133	1.88515	-0.86388	1.97252
940.000	-0.63657	1.89314	-0.79075	1.96063
941.000	-0.65436	1.90704	-0.89156	1.99237
942.000	-0.71366	1.90503	-0.82831	2.04207
943.000	-0.75517	1.87123	-0.90737	1.98243
944.000	-0.69587	1.90305	-0.92120	1.99831
945.000	-0.68203	1.90306	-0.87179	1.98443
946.000	-0.69389	1.92292	-0.86981	1.92483
947.000	-0.69587	1.92292	-0.85796	1.99040
948.000	-0.70378	1.89510	-0.96271	1.98438
949.000	-0.73936	1.92688	-0.89156	1.91290
950.000	-0.69192	1.90504	-0.86784	1.95463
951.000	-0.68401	1.90504	-0.93109	1.93473
952.000	-0.66424	1.92889	-0.90737	2.02018
953.000	-0.71959	1.90105	-0.93306	1.91883
954.000	-0.71564	1.84541	-0.91923	1.93871
955.000	-0.68203	1.93882	-0.92120	1.92281
956.000	-0.66622	1.89511	-0.92516	2.02017
957.000	-0.71564	1.90900	-0.98445	1.94662
958.000	-0.65436	1.93287	-0.92911	1.98242
959.000	-0.67808	1.89710	-1.00026	2.03602
960.000	-0.65238	1.89114	-0.93702	1.97446
961.000	-0.68796	1.84741	-0.89946	1.95462
962.000	-0.67017	1.87524	-0.96469	1.94465
963.000	-0.67017	1.89114	-0.91132	1.97647
964.000	-0.66029	1.87326	-0.95480	1.96055
965.000	-0.67017	1.89710	-0.91527	2.02812
966.000	-0.66820	1.91697	-0.91923	2.04004
967.000	-0.68203	1.86927	-0.95678	1.98836
968.000	-0.66622	1.92889	-0.96469	1.95259
969.000	-0.68994	1.88119	-0.91330	1.92481
970.000	-0.69785	1.93286	-0.95678	1.96849
971.000	-0.63657	1.88519	-0.96666	1.96054
972.000	-0.65238	1.90903	-0.95678	2.04399
973.000	-0.68006	1.90306	-0.95480	1.97843
974.000	-0.69785	1.90901	-0.96271	2.07180
975.000	-0.64052	1.99050	-0.87772	2.00629
976.000	-0.66622	1.93486	-1.00224	2.01813
977.000	-0.63855	1.92890	-1.01607	1.98634
978.000	-0.62075	1.95673	-0.97062	2.05590
979.000	-0.68006	1.88517	-0.97457	1.96054
980.000	-0.65634	1.91300	-0.96469	1.93273
981.000	-0.67610	1.92293	-0.99631	1.99628
982.000	-0.68994	1.88318	-1.01607	1.96448
983.000	-0.67017	1.89909	-0.99038	1.96053
984.000	-0.66424	1.87922	-0.96469	1.95855
985.000	-0.68401	1.93286	-0.96864	2.00623
986.000	-0.66227	1.92691	-1.01607	1.99627
987.000	-0.66029	1.92095	-1.04374	2.00222
988.000	-0.68401	1.87722	-0.99236	1.98437
989.000	-0.71959	1.92490	-1.04374	1.98632
990.000	-0.67413	1.88915	-1.08920	1.97636
991.000	-0.65436	1.90505	-0.99236	1.98039
992.000	-0.68006	1.95273	-1.01212	2.07375
993.000	-0.66622	1.93684	-0.97259	1.97246
994.000	-0.64250	1.93884	-1.00619	1.98634
995.000	-0.64843	1.96268	-0.92911	2.01023
996.000	-0.68401	1.93485	-1.01607	2.01217
997.000	-0.63064	1.93884	-0.87772	2.01821
998.000	-0.60099	1.93687	-0.96666	1.98239
999.000	-0.61482	1.93487	-1.01805	2.02011
1000.000	-0.58122	1.94482	-0.95876	2.03008
1001.000	-0.60889	1.97462	-1.00026	1.93270
1002.000	-0.61482	1.93686	-0.95480	1.97048
1003.000	-0.64052	1.96666	-1.04769	1.95453
1004.000	-0.66622	1.97460	-0.96666	1.98041
1005.000	-0.59110	1.92495	-1.00026	2.10753
1006.000	-0.61087	1.92494	-1.00421	2.00025
1007.000	-0.65041	1.91499	-1.02991	1.96050
1008.000	-0.64645	1.91698	-1.01805	1.96448
1009.000	-0.67808	1.89710	-1.01607	1.96846
1010.000	-0.61680	1.88917	-1.01014	1.93866
1011.000	-0.70971	1.87721	-0.96864	2.03007
1012.000	-0.66029	1.90306	-1.04769	2.00023
1013.000	-0.59506	1.95873	-1.04967	2.00618
1014.000	-0.63459	1.91102	-0.99631	1.99231
1015.000	-0.62668	1.93884	-0.94690	1.97247
1016.000	-0.60692	1.91103	-0.94295	1.95062
1017.000	-0.56145	1.94483	-1.02991	2.00421
1018.000	-0.59506	1.94084	-1.03584	2.00619
1019.000	-0.54564	1.92298	-0.98050	1.92278
1020.000	-0.61285	1.90706	-1.05165	1.98036
1021.000	-0.56738	1.91502	-1.04769	1.95056
1022.000	-0.60692	1.94680	-0.98643	1.93073
1023.000	-0.59901	1.88918	-1.05758	2.02009
1024.000	-0.58913	1.91104	-1.02200	1.92077
1025.000	-0.57529	1.92694	-1.07932	1.98829
1026.000	-0.60099	1.91700	-1.07339	2.00418
1027.000	-0.54168	1.90112	-1.10896	1.97833
1028.000	-0.60099	1.92296	-1.03979	1.94460
1029.000	-0.60692	1.88719	-1.02595	1.94461
1030.000	-0.59901	1.92296	-1.11291	1.91078
1031.000	-0.59901	1.89514	-1.10501	1.94655
1032.000	-0.60296	1.92097	-1.05165	1.94062
1033.000	-0.58517	1.89912	-1.08327	1.95848
1034.000	-0.58320	1.89316	-1.07339	1.93862
1035.000	-0.56936	1.90906	-1.03188	1.94858
1036.000	-0.58320	1.94482	-1.06943	1.93266
1037.000	-0.59308	1.90508	-1.08327	2.00815
1038.000	-0.56145	1.89913	-1.04374	1.97043
1039.000	-0.59703	1.88918	-1.05955	1.97638
1040.000	-0.57924	1.89713	-1.03584	2.01811
1041.000	-0.56738	1.91105	-1.05560	2.01214
1042.000	-0.56738	1.92098	-1.07339	1.96445
1043.000	-0.56540	1.91303	-1.11884	1.97435
1044.000	-0.62075	1.89712	-1.05560	1.99029
1045.000	-0.51401	1.92895	-1.05165	1.97837
1046.000	-0.61680	1.88122	-1.07339	1.95650
1047.000	-0.54761	1.89516	-1.08524	2.01212
1048.000	-0.57727	1.86732	-1.02991	2.03401
1049.000	-0.61087	1.87129	-1.09315	1.91874
1050.000	-0.57133	1.94681	-1.10303	1.95450
1051.000	-0.58913	1.88521	-1.03584	1.97043
1052.000	-0.53575	1.92298	-1.10698	1.91674
1053.000	-0.60099	1.89116	-1.02398	2.00223
1054.000	-0.60692	1.92693	-1.02398	1.92872
1055.000	-0.60494	1.94879	-1.09117	1.97437
1056.000	-0.60099	1.87527	-1.10896	2.02998
1057.000	-0.59110	1.91104	-1.11489	1.96045
1058.000	-0.60889	1.90904	-1.04572	1.98235
1059.000	-0.55157	1.90509	-1.09908	1.95251
1060.000	-0.56936	1.95675	-1.03188	1.95454
1061.000	-0.54366	1.93092	-1.07734	1.92471
1062.000	-0.57727	1.90309	-0.99433	1.94860
1063.000	-0.53773	1.97464	-1.02398	1.96051
1064.000	-0.53180	1.91304	-1.06943	1.92273
1065.000	-0.55157	1.90708	-1.03781	1.92871
1066.000	-0.53575	1.89715	-1.11291	2.03793
1067.000	-0.53971	1.90509	-1.08129	2.04192
1068.000	-0.54959	1.88919	-1.07536	1.95451
1069.000	-0.55552	1.92496	-1.09513	2.01807
1070.000	-0.53180	1.89913	-1.13465	1.99619
1071.000	-0.52191	1.94285	-1.09513	2.01410
1072.000	-0.51796	1.90907	-1.06943	1.99227
1073.000	-0.55354	1.99053	-1.17813	1.97232
1074.000	-0.48238	1.94485	-1.06153	2.00419
1075.000	-0.54761	1.93887	-1.10896	1.96840
1076.000	-0.49819	1.96671	-1.15441	2.05180
1077.000	-0.54564	1.91900	-1.05955	1.95055
1078.000	-0.53971	1.92099	-1.11687	1.99223
1079.000	-0.51203	1.93292	-1.11687	1.97833
1080.000	-0.52784	1.93689	-1.05362	1.97439
1081.000	-0.54761	1.94881	-1.06746	1.97637
1082.000	-0.55750	1.93291	-1.06746	1.99823
1083.000	-0.54959	1.96073	-1.11291	1.96641
1084.000	-0.52389	1.93491	-1.19394	2.07561
1085.000	-0.49028	1.94684	-1.09513	2.00814
1086.000	-0.51005	1.93491	-1.13860	1.98825
1087.000	-0.50412	1.96074	-1.13070	2.05977
1088.000	-0.48435	1.93492	-1.13465	1.95845
1089.000	-0.51203	1.93491	-1.09315	2.03993
1090.000	-0.54959	1.93092	-1.10896	1.94257
1091.000	-0.51203	1.97465	-1.08920	1.99225
1092.000	-0.53378	1.94484	-1.10698	2.00019
1093.000	-0.49226	1.89120	-1.15441	1.97234
1094.000	-0.55354	1.87528	-1.08722	1.96444
1095.000	-0.47249	1.93293	-1.12279	1.99620
1096.000	-0.49226	1.89120	-1.18801	1.94848
1097.000	-0.50215	1.90709	-1.08920	1.96046
1098.000	-0.55354	1.89714	-1.09513	1.96046
1099.000	-0.53773	1.92099	-1.13268	1.97832
1100.000	-0.52587	1.91503	-1.13663	1.99421
1101.000	-0.48831	1.93492	-1.13070	1.99620
1102.000	-0.49622	1.92100	-1.14848	2.06770
1103.000	-0.47447	1.94486	-1.08327	1.97040
1104.000	-0.52784	1.97067	-1.11291	2.02402
1105.000	-0.46459	1.96473	-1.10303	2.00019
1106.000	-0.51796	1.97663	-1.19987	1.97032
1107.000	-0.46459	1.90512	-1.10698	1.99423
1108.000	-0.45865	1.93294	-1.20777	1.95840
1109.000	-0.47842	1.98261	-1.13663	2.02798
1110.000	-0.51401	1.93690	-1.15639	2.00810
1111.000	-0.49226	1.95876	-1.21765	2.01203
1112.000	-0.52982	1.92695	-1.11094	1.98032
1113.000	-0.49028	1.94684	-1.19196	1.99218
1114.000	-0.49028	1.91703	-1.18208	1.97232
1115.000	-0.49226	1.93690	-1.11884	2.06971
1116.000	-0.49226	1.90312	-1.20975	1.96038
1117.000	-0.47447	1.91902	-1.08524	1.96643
1118.000	-0.52587	1.95279	-1.19789	2.01204
1119.000	-0.55947	1.94880	-1.18406	1.98821
1120.000	-0.49226	1.94286	-1.15046	1.95446
1121.000	-0.51005	1.94683	-1.13860	1.96441
1122.000	-0.51203	1.95478	-1.13860	2.00811
1123.000	-0.49226	1.95677	-1.18801	1.96437
1124.000	-0.50610	1.94286	-1.18406	1.95047
1125.000	-0.49028	1.91703	-1.10501	1.94853
1126.000	-0.48040	1.91107	-1.22358	2.01600
1127.000	-0.47249	1.95280	-1.14651	2.03195
1128.000	-0.51005	1.97664	-1.19394	1.97827
1129.000	-0.45272	1.95281	-1.19394	1.97629
1130.000	-0.51796	1.90311	-1.19394	1.96039
1131.000	-0.46854	1.91108	-1.17220	1.94650
1132.000	-0.52982	1.92099	-1.17220	2.00809
1133.000	-0.49424	1.92299	-1.18010	1.96040
1134.000	-0.51598	1.90113	-1.24136	2.00208
1135.000	-0.44877	1.87929	-1.20579	1.98820
1136.000	-0.54366	1.96669	-1.24334	2.07557
1137.000	-0.49424	1.92697	-1.22951	2.00209
1138.000	-0.49819	1.94286	-1.18998	2.07164
1139.000	-0.48238	1.95081	-1.23544	2.03188
1140.000	-0.49226	1.95876	-1.24334	1.99413
1141.000	-0.51994	1.94285	-1.23939	2.04777
1142.000	-0.45865	1.95281	-1.20579	1.94250
1143.000	-0.47842	1.94485	-1.20777	1.95442
1144.000	-0.47842	1.96075	-1.18208	2.00411
1145.000	-0.48435	1.95479	-1.15244	1.97433
1146.000	-0.48435	1.91703	-1.12675	1.98627
1147.000	-0.45470	1.92499	-1.22951	1.99414
1148.000	-0.46063	1.95479	-1.26310	2.01199
1149.000	-0.49622	1.90511	-1.16034	1.99022
1150.000	-0.50808	1.90908	-1.23544	2.00804
1151.000	-0.51203	1.91702	-1.21567	2.01799
1152.000	-0.45865	1.97069	-1.14848	2.03790
1153.000	-0.42109	1.97666	-1.17418	2.07563
1154.000	-0.47052	1.89120	-1.24136	2.02393
1155.000	-0.47842	1.94684	-1.14848	1.96837
1156.000	-0.47842	1.94485	-1.19196	1.95046
1157.000	-0.46063	1.91903	-1.15441	2.02797
1158.000	-0.48435	1.94287	-1.16034	1.93062
1159.000	-0.45470	1.95877	-1.15837	1.97631
1160.000	-0.50017	1.93491	-1.18406	2.00808
1161.000	-0.48633	1.94088	-1.18406	2.02199
1162.000	-0.52784	1.95279	-1.15837	2.03790
1163.000	-0.49028	1.92101	-1.20184	2.09547
1164.000	-0.47645	1.93691	-1.12872	2.00017
1165.000	-0.45470	1.94883	-1.14651	2.02599
1166.000	-0.46854	1.91108	-1.22753	2.04778
1167.000	-0.45272	1.92102	-1.13070	2.02401
1168.000	-0.50412	1.95279	-1.15244	2.05975
1169.000	-0.50610	1.92498	-1.18603	2.04384
1170.000	-0.49622	1.94087	-1.22160	1.97229
1171.000	-0.45865	1.96274	-1.16825	1.99617
1172.000	-0.50610	1.92895	-1.14651	2.02797
1173.000	-0.52982	1.91901	-1.18801	2.07959
1174.000	-0.48435	1.90511	-1.20579	2.00806
1175.000	-0.46459	1.89121	-1.20579	2.05177
1176.000	-0.39935	1.91507	-1.16429	1.99021
1177.000	-0.45470	1.93691	-1.17813	2.06967
1178.000	-0.46063	1.94883	-1.15837	2.01803
1179.000	-0.48238	1.89319	-1.19789	2.01006
1180.000	-0.42702	1.99256	-1.20777	2.02197
1181.000	-0.45668	1.91108	-1.21370	1.96435
1182.000	-0.45272	1.89518	-1.16429	2.04584
1183.000	-0.49028	1.94882	-1.09710	1.98827
1184.000	-0.48238	1.94485	-1.18603	1.99616
1185.000	-0.43691	1.93096	-1.20975	2.08752
1186.000	-0.46261	1.90313	-1.20777	2.06567
1187.000	-0.47249	1.92498	-1.21172	2.03587
1188.000	-0.45272	1.91903	-1.13860	2.06771
1189.000	-0.45075	1.89121	-1.23346	1.98023
1190.000	-0.46459	1.88326	-1.18998	2.00609
1191.000	-0.43691	1.90115	-1.15244	2.00214
1192.000	-0.43889	1.93692	-1.18998	2.02198
1193.000	-0.42900	1.94884	-1.26705	1.98617
1194.000	-0.47447	1.95678	-1.20777	1.97826
1195.000	-0.42900	1.93891	-1.22358	2.07758
1196.000	-0.44284	1.94486	-1.20184	2.02992
1197.000	-0.40330	1.94686	-1.23939	2.04777
1198.000	-0.47645	1.89120	-1.19987	2.03985
1199.000	-0.42702	1.95679	-1.18010	2.15508
1200.000	-0.50017	1.92299	-1.19789	2.10540
1201.000	-0.48831	1.91107	-1.14058	1.96440
1202.000	-0.42109	1.92102	-1.26112	2.09145
1203.000	-0.41714	1.93891	-1.20975	2.03389
1204.000	-0.46656	1.88723	-1.26508	2.04973
1205.000	-0.48633	1.91703	-1.24927	2.12523
1206.000	-0.45865	1.91903	-1.19196	2.04780
1207.000	-0.43098	1.92698	-1.20184	2.06766
1208.000	-0.47447	1.93293	-1.25717	2.08947
1209.000	-0.43691	1.92102	-1.19789	2.14116
1210.000	-0.42505	1.94089	-1.23939	2.09147
1211.000	-0.48633	1.90114	-1.26508	2.06165
1212.000	-0.43691	1.96076	-1.18208	2.04384
1213.000	-0.46459	1.93294	-1.23939	2.02989
1214.000	-0.43098	1.94089	-1.22160	2.10141
1215.000	-0.43889	1.93692	-1.19789	2.03985
1216.000	-0.45272	1.91307	-1.20184	2.13122
1217.000	-0.47447	1.91306	-1.25717	2.03385
1218.000	-0.43493	1.93294	-1.22160	2.11532
1219.000	-0.38353	1.93296	-1.13663	2.06175
1220.000	-0.41319	1.92301	-1.25717	2.04775
1221.000	-0.47842	1.92300	-1.19789	2.09746
1222.000	-0.44679	1.93294	-1.22555	2.04381
1223.000	-0.47842	1.94088	-1.18406	2.11336
1224.000	-0.43493	1.91903	-1.14651	2.04585
1225.000	-0.41516	1.91705	-1.18603	1.99815
1226.000	-0.41121	1.90314	-1.16232	2.01207
1227.000	-0.45075	1.93691	-1.14256	2.14915
1228.000	-0.43098	1.90910	-1.23939	2.06962
1229.000	-0.40923	1.96077	-1.26508	2.11528
1230.000	-0.39144	1.93892	-1.22358	2.07956
1231.000	-0.41121	1.94487	-1.22951	2.06168
1232.000	-0.42307	1.94884	-1.15837	2.08358
1233.000	-0.41516	1.91705	-1.22555	2.09942
1234.000	-0.43296	1.91903	-1.26903	2.08549
1235.000	-0.39144	1.91706	-1.25717	2.01994
1236.000	-0.42900	1.91109	-1.16034	2.11934
1237.000	-0.39144	1.90513	-1.19987	2.02197
1238.000	-0.43889	1.91108	-1.25322	2.05968
1239.000	-0.40726	1.89321	-1.23544	2.08551
1240.000	-0.38749	1.94090	-1.25915	2.04378
1241.000	-0.41319	1.90910	-1.16825	1.98425
1242.000	-0.39539	1.92302	-1.15441	2.09551
1243.000	-0.39144	1.91706	-1.18603	2.08356
1244.000	-0.37958	1.91905	-1.29274	2.06163
1245.000	-0.38946	1.90116	-1.12675	2.02600
1246.000	-0.39737	1.95084	-1.25124	2.05173
1247.000	-0.36772	1.96475	-1.15639	2.09153
1248.000	-0.41516	1.97468	-1.24334	2.04181
1249.000	-0.36772	1.99456	-1.27693	2.10137
1250.000	-0.41714	1.90513	-1.20382	2.06766
1251.000	-0.41714	1.96275	-1.26310	2.05967
1252.000	-0.40726	1.94289	-1.20975	2.06964
1253.000	-0.39737	1.97468	-1.29076	2.07156
1254.000	-0.39144	1.96673	-1.17615	2.06768
1255.000	-0.42900	1.91903	-1.24927	2.00008
1256.000	-0.40528	1.91308	-1.23939	2.04578
1257.000	-0.38353	2.00449	-1.23346	2.06565
1258.000	-0.40923	1.91507	-1.28286	2.06561
1259.000	-0.34202	1.99059	-1.26112	2.06166
1260.000	-0.40133	1.97667	-1.14848	2.06969
1261.000	-0.37958	1.96078	-1.24729	2.01995
1262.000	-0.38156	1.94687	-1.23741	2.03784
1263.000	-0.35388	1.92700	-1.21765	2.02991
1264.000	-0.35981	1.95482	-1.25520	2.03981
1265.000	-0.36772	1.96873	-1.21370	2.06169
1266.000	-0.40528	1.90116	-1.23939	2.08948
1267.000	-0.39144	1.95084	-1.20777	2.10142
1268.000	-0.36772	1.94289	-1.22160	2.07162
1269.000	-0.36772	1.95283	-1.23939	2.07955
1270.000	-0.40330	1.94686	-1.23148	2.08353
1271.000	-0.38551	1.92898	-1.16034	2.05975
1272.000	-0.42307	1.92500	-1.17022	2.09152
1273.000	-0.42307	1.96673	-1.29076	2.02190
1274.000	-0.41121	1.93096	-1.20975	2.11334
1275.000	-0.41714	1.95282	-1.26508	2.05371
1276.000	-0.40133	1.97667	-1.20777	2.02395
1277.000	-0.43493	1.94884	-1.16034	2.00015
1278.000	-0.37563	1.94488	-1.24334	2.00605
1279.000	-0.37167	1.93097	-1.25124	2.04180
1280.000	-0.38551	1.95879	-1.19196	2.01999
1281.000	-0.35783	1.92899	-1.16627	2.03988
1282.000	-0.42307	1.97269	-1.20382	2.01402
1283.000	-0.41121	1.92500	-1.22951	2.10141
1284.000	-0.37167	1.97071	-1.24927	2.05769
1285.000	-0.42505	1.95679	-1.19196	2.03589
1286.000	-0.38353	1.95879	-1.20184	2.01403
1287.000	-0.38551	1.93097	-1.22753	1.98620
1288.000	-0.38156	1.94488	-1.24532	2.06167
1289.000	-0.38551	1.96077	-1.25520	2.03981
1290.000	-0.37958	1.98859	-1.19591	2.01204
1291.000	-0.46656	1.92697	-1.23544	2.03784
1292.000	-0.40330	1.95878	-1.18208	2.01007
1293.000	-0.40726	1.94885	-1.23939	1.95837
1294.000	-0.39935	1.96077	-1.19591	2.02595
1295.000	-0.44679	1.95082	-1.16232	2.07961
1296.000	-0.38749	1.96475	-1.17418	2.05179
1297.000	-0.38551	1.93097	-1.23346	2.06764
1298.000	-0.42900	1.93096	-1.23741	2.00009
1299.000	-0.38353	1.97866	-1.24532	2.07160
1300.000	-0.39935	1.96673	-1.30657	2.07155
1301.000	-0.41319	1.94686	-1.18998	2.06171
1302.000	-0.41319	1.92699	-1.20184	2.06965
1303.000	-0.40923	1.89122	-1.22753	2.00606
1304.000	-0.44482	2.00447	-1.24927	2.03783
1305.000	-0.39539	1.94488	-1.24927	2.11728
1306.000	-0.38749	1.99654	-1.24334	2.04975
1307.000	-0.40923	1.93891	-1.20579	2.06170
1308.000	-0.39144	1.97866	-1.24729	2.08153
1309.000	-0.37958	1.99257	-1.26112	2.05371
1310.000	-0.37167	1.93097	-1.20777	2.09944
1311.000	-0.39737	1.95878	-1.19196	2.07760
1312.000	-0.36376	1.92302	-1.28088	2.03383
1313.000	-0.40726	1.98660	-1.20777	2.04581
1314.000	-0.39342	1.96077	-1.20579	2.00608
1315.000	-0.39144	1.99058	-1.24136	2.02790
1316.000	-0.42702	1.92500	-1.23939	2.03784
1317.000	-0.41912	1.97070	-1.19591	2.09349
1318.000	-0.37958	1.98859	-1.24136	2.08948
1319.000	-0.37365	1.99058	-1.25124	2.09146
1320.000	-0.39935	1.96673	-1.22160	2.01401
1321.000	-0.41121	1.96077	-1.20777	2.03389
1322.000	-0.39935	1.95481	-1.19394	2.03986
1323.000	-0.40726	1.95282	-1.23148	2.02394
1324.000	-0.35783	2.00251	-1.23346	2.09942
1325.000	-0.42702	1.94884	-1.19987	2.04780
1326.000	-0.38749	1.99853	-1.29867	2.04573
1327.000	-0.44086	1.94486	-1.27693	2.06164
1328.000	-0.41714	2.01640	-1.20975	2.06567
1329.000	-0.40133	1.94487	-1.20975	2.03587
1330.000	-0.39342	2.02237	-1.27496	2.10137
1331.000	-0.39935	1.97667	-1.26310	2.09741
1332.000	-0.36179	1.98661	-1.23939	2.08750
1333.000	-0.39539	1.99654	-1.26310	2.06761
1334.000	-0.37563	1.97270	-1.26508	2.06563
1335.000	-0.43098	1.92500	-1.22358	2.06566
1336.000	-0.35981	1.96674	-1.23346	2.13716
1337.000	-0.36179	1.97072	-1.19196	2.09945
1338.000	-0.39539	1.91109	-1.19987	2.05574
1339.000	-0.39935	1.93295	-1.25915	2.03385
1340.000	-0.43493	1.97666	-1.19987	2.08355
1341.000	-0.43098	1.94487	-1.23148	2.05572
1342.000	-0.43098	1.91506	-1.21370	2.03786
1343.000	-0.36179	1.97072	-1.19196	2.04184
1344.000	-0.37760	1.95482	-1.21567	2.08354
1345.000	-0.35783	1.98065	-1.23148	2.11928
1346.000	-0.36772	1.96277	-1.28286	2.06164
1347.000	-0.33213	1.96675	-1.31250	2.08942
1348.000	-0.36969	1.97667	-1.25124	2.05570
1349.000	-0.34399	1.97072	-1.24334	2.10140
1350.000	-0.36969	1.97270	-1.27298	2.02589
1351.000	-0.39539	1.96475	-1.24136	2.04578
1352.000	-0.39144	2.00647	-1.28286	2.08547
1353.000	-0.40330	1.99455	-1.16825	2.06769
1354.000	-0.41319	1.98859	-1.19394	2.06568
1355.000	-0.42307	1.98660	-1.27100	2.08350
1356.000	-0.37760	1.97866	-1.23544	2.08551
1357.000	-0.38749	1.95879	-1.17220	2.08357
1358.000	-0.35586	2.02834	-1.22753	2.03784
1359.000	-0.40133	1.95680	-1.22753	2.14312
1360.000	-0.45668	1.96274	-1.25322	2.05769
1361.000	-0.36772	1.97469	-1.14453	2.10147
1362.000	-0.38749	1.98859	-1.22358	2.07360
1363.000	-0.42900	1.97467	-1.18010	2.09549
1364.000	-0.42702	1.93692	-1.21172	2.07361
1365.000	-0.36772	2.01045	-1.24532	2.06365
1366.000	-0.42505	1.97467	-1.19789	2.07760
1367.000	-0.36179	1.98065	-1.25915	2.08748
1368.000	-0.33609	1.99655	-1.21963	2.07758
1369.000	-0.39144	1.97667	-1.25322	2.09742
1370.000	-0.35388	1.99853	-1.24927	2.04180
1371.000	-0.33016	2.01046	-1.23544	2.10538
1372.000	-0.34795	2.03430	-1.23148	2.09942
1373.000	-0.33806	2.00847	-1.24136	2.06564
1374.000	-0.31434	2.01245	-1.23939	2.05969
1375.000	-0.33609	1.99854	-1.23346	2.03188
1376.000	-0.34202	2.01245	-1.22555	2.03983
1377.000	-0.34202	2.00251	-1.19987	2.10342
1378.000	-0.38551	2.03827	-1.23148	2.07360
1379.000	-0.29457	2.00451	-1.26310	2.07556
1380.000	-0.36772	2.00648	-1.20579	2.09149
1381.000	-0.42109	2.03031	-1.23939	2.07160
1382.000	-0.54564	2.00643	-1.28879	2.01793
1383.000	-0.62471	2.02031	-1.43500	2.09130
1384.000	-0.86981	1.99834	-1.56540	1.99386
1385.000	-1.03386	2.05387	-1.71750	1.99569
1386.000	-1.32040	2.09339	-2.01769	2.03109
1387.000	-1.67404	2.09702	-2.29407	2.13991
1388.000	-1.99202	2.22967	-2.62954	2.10960
1389.000	-2.43618	2.30442	-3.04567	2.16439
1390.000	-2.81891	2.40885	-3.54419	2.21684
1391.000	-3.32553	2.43348	-4.01858	2.38207
1392.000	-3.71353	2.60683	-4.40398	2.53532
1393.000	-4.22312	2.65472	-4.89105	2.68984
1394.000	-4.63189	2.80164	-5.36370	2.72540
1395.000	-5.05391	2.97384	-5.83366	2.86735
1396.000	-5.39701	3.12627	-6.32628	2.89037
1397.000	-5.69667	3.20560	-6.74582	2.99829
1398.000	-6.07226	3.22119	-7.11403	3.19673
1399.000	-6.40048	3.38076	-7.46805	3.28859
1400.000	-6.64051	3.42837	-7.68951	3.43426
1401.000	-6.83549	3.53130	-8.14723	3.44027
1402.000	-7.12961	3.54482	-8.39311	3.45970
1403.000	-7.29306	3.55337	-8.70437	3.55680
1404.000	-7.47971	3.61868	-8.98040	3.58154
1405.000	-7.79821	3.61403	-9.26372	3.65107
1406.000	-8.15885	3.51472	-9.64076	3.59629
1407.000	-8.29634	3.64685	-9.81553	3.60613
1408.000	-8.58650	3.59906	-10.09938	3.57179
1409.000	-8.91674	3.61936	-10.44392	3.58545
1410.000	-9.26179	3.55721	-10.62928	3.58330
1411.000	-9.50812	3.59183	-10.97835	3.61222
1412.000	-9.70800	3.57604	-11.19730	3.58036
1413.000	-9.96519	3.59278	-11.50517	3.63865
1414.000	-10.06488	3.58778	-11.62092	3.63132
1415.000	-10.27748	3.56005	-11.89189	3.68593
1416.000	-10.40759	3.65018	-11.92786	3.68156
1417.000	-10.37125	3.66230	-11.93921	3.83258
1418.000	-10.36359	3.79685	-11.98462	3.88811
1419.000	-10.29280	3.82303	-11.95813	4.01634
1420.000	-10.23537	3.86855	-11.85024	4.01405
1421.000	-10.17792	3.90433	-11.78963	4.07501
1422.000	-10.10896	3.89347	-11.63040	4.06959
1423.000	-10.08213	3.92889	-11.60385	4.06804
1424.000	-9.90764	3.86857	-11.55452	4.11530
1425.000	-9.98820	3.87347	-11.41782	4.05132
1426.000	-9.94409	3.89545	-11.36462	4.02879
1427.000	-10.00929	3.86152	-11.26007	3.97006
1428.000	-9.99011	3.84614	-11.25627	3.92351
1429.000	-10.12812	3.77821	-11.27528	3.90189
1430.000	-10.15877	3.71155	-11.32281	3.86629
1431.000	-10.22388	3.74004	-11.26007	3.82440
1432.000	-10.28131	3.67504	-11.38932	3.79355
1433.000	-10.47642	3.68444	-11.39122	3.82071
1434.000	-10.48407	3.68825	-11.47859	3.85059
1435.000	-10.48980	3.66870	-11.47289	3.80797
1436.000	-10.43053	3.71421	-11.52984	3.86542
1437.000	-10.61973	3.69831	-11.57918	3.86280
1438.000	-10.61973	3.74699	-11.69677	3.94649
1439.000	-10.69419	3.72077	-11.71762	3.90742
1440.000	-10.69228	3.79087	-11.71383	4.03155
1441.000	-10.75718	3.77838	-11.77258	4.04619
1442.000	-10.66174	3.85937	-11.86160	4.07394
1443.000	-10.70946	3.90157	-11.76121	4.09287
1444.000	-10.74191	3.87197	-11.84267	4.15171
1445.000	-10.62928	3.90649	-11.85781	4.09143
1446.000	-10.73046	3.90325	-11.83888	4.04909
1447.000	-10.75718	3.90680	-11.77637	4.16433
1448.000	-10.70946	3.91519	-11.85971	4.03135
1449.000	-10.64264	3.92189	-11.79152	4.01879
1450.000	-10.75527	3.86791	-11.81236	4.08630
1451.000	-10.65983	3.86718	-11.74605	4.03883
1452.000	-10.74191	3.86419	-11.77068	4.05591
1453.000	-10.57006	3.94423	-11.76879	4.07919
1454.000	-10.65983	3.89832	-11.75174	4.06975
1455.000	-10.63501	3.88501	-11.71193	4.08972
1456.000	-10.62737	3.89289	-11.68350	4.07463
1457.000	-10.63882	3.89859	-11.69298	4.03573
1458.000	-10.62164	3.92800	-11.61143	4.02721
1459.000	-10.59299	3.85245	-11.68919	4.04160
1460.000	-10.67128	3.82422	-11.66833	4.05353
1461.000	-10.60636	3.83866	-11.66264	4.04586
1462.000	-10.62164	3.84430	-11.68350	3.96995
1463.000	-10.56051	3.84117	-11.60574	4.00014
1464.000	-10.62546	3.85593	-11.70625	4.06655
1465.000	-10.58726	3.85836	-11.62471	4.01733
1466.000	-10.56242	3.85673	-11.66643	3.97989
1467.000	-10.59490	3.88746	-11.73468	4.02930
1468.000	-10.57388	3.83906	-11.57349	4.02388
1469.000	-10.65983	3.83604	-11.65126	4.01500
1470.000	-10.60063	3.85430	-11.61713	3.98447
1471.000	-10.61400	3.86970	-11.52605	3.91398
1472.000	-10.60827	3.87172	-11.63040	4.05021
1473.000	-10.59872	3.84264	-11.65506	4.07699
1474.000	-10.56624	3.86641	-11.58488	4.05280
1475.000	-10.64073	3.84406	-11.58867	4.05469
1476.000	-10.65601	3.86917	-11.56211	4.01046
1477.000	-10.59299	3.85440	-11.67592	4.03016
1478.000	-10.66747	3.74640	-11.68919	4.06292
1479.000	-10.58344	3.86814	-11.59816	4.03128
1480.000	-10.65410	3.82638	-11.67212	4.02634
1481.000	-10.61400	3.82883	-11.66264	4.05361
1482.000	-10.57388	3.87410	-11.65316	4.06538
1483.000	-10.67701	3.85918	-11.65695	3.99166
1484.000	-10.67510	3.84558	-11.70435	4.06076
1485.000	-10.61209	3.85416	-11.65885	4.02459
1486.000	-10.65410	3.84779	-11.71004	4.11107
1487.000	-10.57770	3.79229	-11.68729	4.05713
1488.000	-10.62737	3.84034	-11.64937	4.01697
1489.000	-10.66174	3.79514	-11.68160	4.03589
1490.000	-10.57962	3.85846	-11.63989	4.08303
1491.000	-10.65792	3.81271	-11.58677	4.04696
1492.000	-10.55096	3.81403	-11.68919	4.05517
1493.000	-10.58344	3.84673	-11.64178	4.06943
1494.000	-10.57770	3.82149	-11.59436	4.03134
1495.000	-10.57962	3.80394	-11.70814	4.11303
1496.000	-10.56624	3.83721	-11.71193	4.04127
1497.000	-10.56051	3.78276	-11.64747	4.05190
1498.000	-10.57962	3.80784	-11.68160	4.03589
1499.000	-10.51656	3.85340	-11.65126	4.11388
1500.000	-10.59872	3.87184	-11.67402	4.09222
1501.000	-10.53376	3.85514	-11.64178	4.02871
1502.000	-10.50509	3.83797	-11.61333	4.07372
1503.000	-10.59872	3.83680	-11.71952	4.05860
1504.000	-10.54522	3.84526	-11.66264	4.08075
1505.000	-10.54714	3.86081	-11.62471	4.00181
1506.000	-10.53949	3.87064	-11.71573	4.03346
1507.000	-10.57006	3.78459	-11.67781	4.00299
1508.000	-10.54331	3.85502	-11.68160	4.07466
1509.000	-10.56051	3.81197	-11.63609	3.99777
1510.000	-10.52229	3.83191	-11.68160	4.00487
1511.000	-10.61209	3.84248	-11.70625	4.05104
1512.000	-10.64837	3.81477	-11.67212	4.03409
1513.000	-10.64646	3.84205	-11.63609	3.99583
1514.000	-10.59108	3.80380	-11.72899	4.07978
1515.000	-10.61018	3.84834	-11.64937	4.01503
1516.000	-10.67510	3.85336	-11.68919	4.04354
1517.000	-10.57388	3.85464	-11.68729	4.02030
1518.000	-10.58153	3.84870	-11.66833	4.03221
1519.000	-10.62737	3.86759	-11.66075	4.04007
1520.000	-10.61782	3.88523	-11.69867	4.03177
1521.000	-10.61018	3.85029	-11.74037	4.07767
1522.000	-10.58917	3.86223	-11.71573	4.02570
1523.000	-10.61591	3.82491	-11.71573	4.05090
1524.000	-10.64455	3.82455	-11.63609	4.08114
1525.000	-10.58917	3.83498	-11.64368	4.06940
1526.000	-10.57770	3.88768	-11.64558	4.02866
1527.000	-10.62164	3.86377	-11.67592	4.08444
1528.000	-10.67892	3.85526	-11.66643	4.07488
1529.000	-10.59681	3.86213	-11.66075	4.02650
1530.000	-10.59872	3.85822	-11.65126	4.07898
1531.000	-10.65792	3.87888	-11.73278	4.07003
1532.000	-10.68656	3.83765	-11.70246	4.00070
1533.000	-10.68083	3.81242	-11.67971	4.08244
1534.000	-10.62164	3.82289	-11.70625	4.01033
1535.000	-10.59299	3.86413	-11.63040	4.05408
1536.000	-10.64264	3.89270	-11.66833	4.04384
1537.000	-10.64264	3.89659	-11.68350	4.01842
1538.000	-10.58344	3.90708	-11.67781	4.02625
1539.000	-10.62928	3.86173	-11.64747	4.02669
1540.000	-10.61973	3.89299	-11.65885	4.02653
1541.000	-10.65792	3.88861	-11.69108	4.03575
1542.000	-10.68274	3.82213	-11.71573	4.01601
1543.000	-10.71710	3.85867	-11.67402	4.01080
1544.000	-10.58153	3.90905	-11.72899	4.07978
1545.000	-10.65983	3.85356	-11.75174	4.06200
1546.000	-10.62928	3.88119	-11.66833	4.10006
1547.000	-10.70565	3.89189	-11.68729	4.08427
1548.000	-10.65792	3.87693	-11.71004	4.09556
1549.000	-10.66365	3.85351	-11.68729	4.03193
1550.000	-10.68656	3.87462	-11.71004	4.03160
1551.000	-10.68847	3.89601	-11.71004	4.03354
1552.000	-10.61782	3.86771	-11.69677	4.02016
1553.000	-10.64455	3.91992	-11.68539	4.01839
1554.000	-10.64264	3.85961	-11.62661	4.08128
1555.000	-10.65983	3.86523	-11.70625	4.05492
1556.000	-10.63501	3.87139	-11.69867	4.07829
1557.000	-10.66747	3.83594	-11.69298	4.02603
1558.000	-10.62355	3.88516	-11.72899	4.09335
1559.000	-10.71328	3.85482	-11.66833	3.99149
1560.000	-10.65219	3.84976	-11.63040	3.97458
1561.000	-10.61400	3.88917	-11.65126	4.00919
1562.000	-10.66556	3.84570	-11.71193	4.02964
1563.000	-10.64073	3.92386	-11.74226	4.06602
1564.000	-10.65028	3.87119	-11.71004	4.04323
1565.000	-10.61782	3.83073	-11.70625	3.99676
1566.000	-10.59108	3.81548	-11.74416	4.00203
1567.000	-10.65028	3.89649	-11.70814	3.98704
1568.000	-10.64264	3.84793	-11.67781	4.00687
1569.000	-10.65601	3.84387	-11.68919	3.95048
1570.000	-10.69992	3.84526	-11.73278	4.00607
1571.000	-10.64837	3.79141	-11.71573	4.05478
1572.000	-10.70565	3.86465	-11.70246	4.04528
1573.000	-10.60063	3.84846	-11.78205	4.04024
1574.000	-10.64646	3.82258	-11.77637	4.03257
1575.000	-10.62164	3.83652	-11.71573	4.00632
1576.000	-10.63119	3.82667	-11.68919	4.05710
1577.000	-10.68465	3.88243	-11.76311	4.02501
1578.000	-10.68465	3.82210	-11.80289	4.03606
1579.000	-10.64455	3.83623	-11.68539	3.99900
1580.000	-10.62546	3.83258	-11.71193	3.98311
1581.000	-10.65219	3.84197	-11.72141	4.00236
1582.000	-10.60254	3.82702	-11.74226	4.02338
1583.000	-10.60254	3.80950	-11.66454	3.96440
1584.000	-10.62737	3.83450	-11.70246	4.02977
1585.000	-10.65983	3.82436	-11.74226	3.95748
1586.000	-10.63501	3.83440	-11.69298	3.97175
1587.000	-10.62546	3.79364	-11.72331	3.97132
1588.000	-10.64264	3.89075	-11.66454	3.98961
1589.000	-10.68465	3.84156	-11.75932	3.97661
1590.000	-10.66174	3.81655	-11.69487	3.94458
1591.000	-10.61209	3.92423	-11.74795	4.01167
1592.000	-10.66747	3.83789	-11.77447	3.97252
1593.000	-10.63310	3.82859	-11.71762	3.91905
1594.000	-10.58917	3.85639	-11.76311	3.96687
1595.000	-10.61209	3.86194	-11.68350	4.00097
1596.000	-10.60827	3.88340	-11.75932	4.00375
1597.000	-10.68847	3.84152	-11.69487	4.04927
1598.000	-10.61209	3.85416	-11.70814	3.93857
1599.000	-10.64455	3.84791	-11.72141	3.97134
1600.000	-10.65410	3.84195	-11.78205	3.96272
1601.000	-10.65792	3.85163	-11.76879	4.01912
1602.000	-10.67892	3.83191	-11.77637	4.01319
1603.000	-10.68847	3.83179	-11.73278	3.97312
1604.000	-10.68465	3.83573	-11.74984	3.97287
1605.000	-10.65792	3.86526	-11.67971	4.00684
1606.000	-10.70374	3.86857	-11.78205	3.97047
1607.000	-10.69038	3.82592	-11.71193	4.02188
1608.000	-10.60063	3.87961	-11.71383	3.97145
1609.000	-10.63310	3.81301	-11.74605	3.91865
1610.000	-10.65601	3.78742	-11.71573	3.97143
1611.000	-10.63501	3.81883	-11.67592	4.03597
1612.000	-10.68847	3.85709	-11.75553	3.96698
1613.000	-10.60827	3.83474	-11.75363	4.00383
1614.000	-10.61973	3.81513	-11.74605	3.95161
1615.000	-10.65983	3.78932	-11.75553	3.97279
1616.000	-10.67701	3.79106	-11.74226	3.91095
1617.000	-10.63692	3.86747	-11.71952	3.98494
1618.000	-10.68083	3.84161	-11.76879	4.00361
1619.000	-10.66747	3.78728	-11.68919	3.90588
1620.000	-10.69610	3.80055	-11.78963	3.94517
1621.000	-10.64073	3.84990	-11.78774	3.97814
1622.000	-10.67892	3.82996	-11.77258	4.00937
1623.000	-10.63882	3.81294	-11.70246	3.95417
1624.000	-10.69992	3.79272	-11.72899	3.95573
1625.000	-10.72664	3.79433	-11.67592	3.93709
1626.000	-10.68465	3.86881	-11.71952	3.98688
1627.000	-10.69228	3.90179	-11.71573	3.96949
1628.000	-10.62928	3.86757	-11.75932	3.95723
1629.000	-10.63501	3.81883	-11.75742	3.94175
1630.000	-10.62928	3.83837	-11.72520	3.96935
1631.000	-10.70565	3.87244	-11.74226	3.97880
1632.000	-10.68274	3.80072	-11.71573	3.93071
1633.000	-10.65410	3.89255	-11.75553	3.91464
1634.000	-10.67128	3.84368	-11.75932	3.96692
1635.000	-10.69610	3.85310	-11.76500	3.94746
1636.000	-10.73618	3.84675	-11.74416	4.04467
1637.000	-10.68656	3.78704	-11.72710	3.95575
1638.000	-10.69228	3.78503	-11.71383	3.98890
1639.000	-10.63119	3.82861	-11.80289	3.98180
1640.000	-10.65792	3.85553	-11.77447	3.93181
1641.000	-10.68656	3.84349	-11.76879	3.99586
1642.000	-10.58153	3.82728	-11.75553	3.97667
1643.000	-10.63310	3.85195	-11.76311	4.01920
1644.000	-10.62355	3.86180	-11.80100	3.96438
1645.000	-10.64073	3.82265	-11.71952	3.97719
1646.000	-10.65028	3.82448	-11.79342	4.04007
1647.000	-10.63882	3.80905	-11.77637	3.96862
1648.000	-10.63310	3.84611	-11.83320	4.04143
1649.000	-10.71328	3.84704	-11.75363	3.97670
1650.000	-10.65028	3.80696	-11.75174	3.97866
1651.000	-10.66747	3.80675	-11.73847	4.01956
1652.000	-10.72282	3.79438	-11.69298	3.89031
1653.000	-10.71328	3.70107	-11.67781	3.71401
1654.000	-10.67128	3.55554	-11.58867	3.63951
1655.000	-10.68465	3.38008	-11.52984	3.41695
1656.000	-10.65410	3.15631	-11.46150	3.18847
1657.000	-10.54331	2.89610	-11.40832	3.01407
1658.000	-10.60254	2.58338	-11.19350	2.71848
1659.000	-10.53567	2.33014	-11.13831	2.43264
1660.000	-10.51083	2.00609	-11.03550	2.01235
1661.000	-10.42480	1.65091	-11.01836	1.67499
1662.000	-10.44774	1.27540	-10.94024	1.39827
1663.000	-10.39611	0.96264	-10.79343	1.09033
1664.000	-10.43818	0.65149	-10.73237	0.77790
1665.000	-10.48407	0.33451	-10.72092	0.34403
1666.000	-10.51083	0.07629	-10.66747	0.03324
1667.000	-10.51274	-0.15844	-10.62546	-0.10559
1668.000	-10.44966	-0.36389	-10.62355	-0.39106
1669.000	-10.39229	-0.46962	-10.68465	-0.59428
1670.000	-10.39037	-0.74355	-10.63692	-0.80356
1671.000	-10.29280	-0.89056	-10.60063	-1.04411
1672.000	-10.25834	-1.02178	-10.60254	-1.10470
1673.000	-10.22005	-1.17064	-10.61018	-1.21023
1674.000	-10.14727	-1.34120	-10.61018	-1.34704
1675.000	-10.15685	-1.52708	-10.55669	-1.56618
1676.000	-10.05146	-1.63915	-10.51847	-1.65432
1677.000	-9.95943	-1.72184	-10.45922	-1.73869
1678.000	-9.94217	-1.81982	-10.41906	-1.86597
1679.000	-9.89805	-1.88467	-10.32916	-1.97012
1680.000	-9.79633	-1.93225	-10.29854	-1.91557
1681.000	-9.71376	-1.94840	-10.21239	-1.91022
1682.000	-9.67342	-1.94863	-10.23345	-1.96094
1683.000	-9.62731	-1.90384	-10.14536	-1.87345
1684.000	-9.64076	-1.86262	-10.14344	-1.80695
1685.000	-9.62538	-1.81764	-10.13578	-1.80504
1686.000	-9.58695	-1.67673	-10.15685	-1.62101
1687.000	-9.55234	-1.64554	-10.14919	-1.60930
1688.000	-9.61001	-1.53746	-10.15110	-1.45079
1689.000	-9.60809	-1.42574	-10.20665	-1.39183
1690.000	-9.69071	-1.38815	-10.25068	-1.30750
1691.000	-9.63307	-1.32566	-10.16834	-1.29219
1692.000	-9.68303	-1.38230	-10.30428	-1.26816
1693.000	-9.68879	-1.33720	-10.32533	-1.30133
1694.000	-9.74833	-1.35852	-10.31002	-1.27400
1695.000	-9.73297	-1.40953	-10.32150	-1.31895
1696.000	-9.74257	-1.41733	-10.35977	-1.30901
1697.000	-9.72913	-1.38603	-10.34829	-1.41272
1698.000	-9.74065	-1.51727	-10.33107	-1.43236
1699.000	-9.70800	-1.57229	-10.37890	-1.46343
1700.000	-9.67534	-1.59595	-10.39037	-1.50835
1701.000	-9.63115	-1.67847	-10.29280	-1.58120
1702.000	-9.62731	-1.74708	-10.33298	-1.56339
1703.000	-9.59656	-1.75704	-10.24877	-1.69487
1704.000	-9.60424	-1.79031	-10.25260	-1.66746
1705.000	-9.59848	-1.81778	-10.31385	-1.73559
1706.000	-9.55619	-1.84348	-10.26791	-1.74757
1707.000	-9.58310	-1.88253	-10.26791	-1.79060
1708.000	-9.56772	-1.91397	-10.24686	-1.78094
1709.000	-9.55811	-1.92186	-10.22771	-1.81430
1710.000	-9.56388	-1.89831	-10.25260	-1.82393
1711.000	-9.51773	-1.91817	-10.23537	-1.79665
1712.000	-9.51773	-1.92405	-10.27174	-1.83556
1713.000	-9.49658	-1.89673	-10.25643	-1.86107
1714.000	-9.52543	-1.92401	-10.23537	-1.83968
1715.000	-9.55234	-1.92581	-10.31385	-1.90179
1716.000	-9.48696	-2.01046	-10.28705	-1.90782
1717.000	-9.52158	-1.94167	-10.22771	-1.79278
1718.000	-9.53312	-1.97295	-10.23345	-1.90423
1719.000	-9.55234	-1.92581	-10.21431	-1.85936
1720.000	-9.51966	-1.93972	-10.25260	-1.83176
1721.000	-9.53312	-1.90240	-10.17792	-1.82436
1722.000	-9.48696	-1.88502	-10.19516	-1.77927
1723.000	-9.55619	-1.91599	-10.17792	-1.80676
1724.000	-9.57541	-1.88649	-10.23154	-1.82797
1725.000	-9.50427	-1.92804	-10.22962	-1.81037
1726.000	-9.49273	-1.83403	-10.24111	-1.80249
1727.000	-9.49273	-1.87715	-10.24686	-1.69097
1728.000	-9.50427	-1.90648	-10.20090	-1.69708
1729.000	-9.55042	-1.85135	-10.17792	-1.75981
1730.000	-9.50620	-1.87119	-10.21622	-1.77329
1731.000	-9.56388	-1.83560	-10.26600	-1.70260
1732.000	-9.51004	-1.87901	-10.20665	-1.74987
1733.000	-9.48312	-1.84780	-10.24877	-1.73008
1734.000	-9.53312	-1.84165	-10.22005	-1.69698
1735.000	-9.55811	-1.81996	-10.24111	-1.65970
1736.000	-9.58118	-1.84335	-10.19133	-1.72061
1737.000	-9.58887	-1.82763	-10.26983	-1.64195
1738.000	-9.54273	-1.83180	-10.24111	-1.68513
1739.000	-9.55427	-1.78862	-10.25643	-1.65571
1740.000	-9.56772	-1.77875	-10.27174	-1.67910
1741.000	-9.56965	-1.82185	-10.31193	-1.69453
1742.000	-9.52543	-1.79073	-10.26983	-1.65955
1743.000	-9.57733	-1.86688	-10.27174	-1.67714
1744.000	-9.57733	-1.82181	-10.14344	-1.65238
1745.000	-9.54658	-1.85921	-10.23728	-1.68319
1746.000	-9.54850	-1.80237	-10.15494	-1.63667
1747.000	-9.51773	-1.86133	-10.21048	-1.62465
1748.000	-9.60232	-1.86871	-10.18367	-1.64630
1749.000	-9.54658	-1.82786	-10.25643	-1.64788
1750.000	-9.54658	-1.83766	-10.21814	-1.67938
1751.000	-9.51581	-1.79274	-10.22771	-1.64216
1752.000	-9.54081	-1.80241	-10.20665	-1.65206
1753.000	-9.51389	-1.84763	-10.19707	-1.61298
1754.000	-9.52350	-1.77310	-10.22580	-1.61674
1755.000	-9.57349	-1.78460	-10.17601	-1.71678
1756.000	-9.50620	-1.85551	-10.17792	-1.64829
1757.000	-9.53312	-1.85929	-10.22388	-1.70087
1758.000	-9.51581	-1.83782	-10.23728	-1.65972
1759.000	-9.53119	-1.83382	-10.18941	-1.69910
1760.000	-9.49466	-1.81441	-10.15877	-1.64448
1761.000	-9.52927	-1.86911	-10.16834	-1.71291
1762.000	-9.54273	-1.86316	-10.18941	-1.69323
1763.000	-9.55811	-1.85915	-10.13578	-1.69743
1764.000	-9.56388	-1.89635	-10.25643	-1.72025
1765.000	-9.53504	-1.85340	-10.20856	-1.73225
1766.000	-9.56772	-1.86694	-10.19133	-1.72648
1767.000	-9.53888	-1.82986	-10.20856	-1.76355
1768.000	-9.53696	-1.87299	-10.16451	-1.71488
1769.000	-9.50812	-1.85942	-10.20473	-1.74988
1770.000	-9.52158	-1.83583	-10.22388	-1.73412
1771.000	-9.53312	-1.82989	-10.24111	-1.68513
1772.000	-9.54658	-1.82590	-10.20282	-1.73619
1773.000	-9.51196	-1.82216	-10.19324	-1.73820
1774.000	-9.57157	-1.86888	-10.21048	-1.76354
1775.000	-9.53696	-1.85143	-10.16260	-1.77554
1776.000	-9.58695	-1.87075	-10.22771	-1.75366
1777.000	-9.57926	-1.87667	-10.24303	-1.69881
1778.000	-9.53504	-1.85536	-10.25451	-1.64985
1779.000	-9.58310	-1.82766	-10.30811	-1.68477
1780.000	-9.55234	-1.83958	-10.19899	-1.71470
1781.000	-9.57541	-1.87865	-10.28323	-1.70055
1782.000	-9.50427	-1.86336	-10.20665	-1.71074
1783.000	-9.55619	-1.84544	-10.23154	-1.68909
1784.000	-9.53888	-1.88473	-10.26408	-1.72021
1785.000	-9.54658	-1.83178	-10.23537	-1.66756
1786.000	-9.56388	-1.84736	-10.22771	-1.73410
1787.000	-9.52350	-1.82994	-10.25260	-1.70267
1788.000	-9.54273	-1.82592	-10.18941	-1.66388
1789.000	-9.60040	-1.84324	-10.26600	-1.74954
1790.000	-9.52735	-1.79072	-10.28897	-1.74941
1791.000	-9.55427	-1.83565	-10.26217	-1.67915
1792.000	-9.53888	-1.83378	-10.21431	-1.72244
1793.000	-9.56003	-1.86110	-10.23920	-1.76925
1794.000	-9.52543	-1.81425	-10.27748	-1.66147
1795.000	-9.58887	-1.86290	-10.21048	-1.73811
1796.000	-9.51389	-1.86527	-10.19324	-1.73038
1797.000	-9.53888	-1.81614	-10.25643	-1.68505
1798.000	-9.51773	-1.80253	-10.26217	-1.73783
1799.000	-9.59271	-1.81193	-10.18558	-1.72651
1800.000	-9.58310	-1.82962	-10.20090	-1.72838
1801.000	-9.52735	-1.87108	-10.25643	-1.73199
1802.000	-9.51581	-1.82998	-10.19324	-1.71668
1803.000	-9.56003	-1.79055	-10.21622	-1.74590
1804.000	-9.52350	-1.84758	-10.19899	-1.75186
1805.000	-9.54465	-1.83571	-10.23345	-1.73994
1806.000	-9.59271	-1.85308	-10.24303	-1.73206
1807.000	-9.54658	-1.85529	-10.22005	-1.74784
1808.000	-9.56772	-1.86498	-10.17026	-1.78137
1809.000	-9.57541	-1.86494	-10.22388	-1.70674
1810.000	-9.55619	-1.86308	-10.16068	-1.79120
1811.000	-9.55042	-1.87291	-10.23537	-1.73602
1812.000	-9.56388	-1.84736	-10.20282	-1.74402
1813.000	-9.54850	-1.86704	-10.23728	-1.74970
1814.000	-9.56772	-1.91397	-10.23728	-1.72818
1815.000	-9.54081	-1.82593	-10.22962	-1.75756
1816.000	-9.55427	-1.80038	-10.26026	-1.76522
1817.000	-9.56196	-1.86501	-10.21048	-1.68334
1818.000	-9.53888	-1.81222	-10.14919	-1.74236
1819.000	-9.61193	-1.82946	-10.24877	-1.77115
1820.000	-9.59848	-1.84521	-10.23728	-1.73014
1821.000	-9.58502	-1.86880	-10.22197	-1.73022
1822.000	-9.60040	-1.84128	-10.24686	-1.76529
1823.000	-9.60809	-1.83536	-10.20282	-1.75576
1824.000	-9.62154	-1.88036	-10.26217	-1.75934
1825.000	-9.60232	-1.86283	-10.24111	-1.68513
1826.000	-9.59848	-1.83934	-10.25068	-1.73593
1827.000	-9.61193	-1.87649	-10.18558	-1.70694
1828.000	-9.60232	-1.84127	-10.18175	-1.75196
1829.000	-9.53504	-1.76324	-10.14727	-1.65236
1830.000	-9.41386	-1.82268	-10.08596	-1.63506
1831.000	-9.41771	-1.85403	-9.93258	-1.68479
1832.000	-9.14235	-1.76522	-9.73873	-1.66031
1833.000	-8.90323	-1.81548	-9.55427	-1.68866
1834.000	-8.44341	-1.76856	-9.22135	-1.74129
1835.000	-8.11623	-1.85266	-8.80286	-1.84544
1836.000	-7.76716	-1.95466	-8.41439	-1.86699
1837.000	-7.17632	-1.97702	-7.80403	-1.96236
1838.000	-6.74777	-2.12680	-7.28917	-2.12433
1839.000	-6.24228	-2.25730	-6.81015	-2.27447
1840.000	-5.63990	-2.29535	-6.27159	-2.47236
1841.000	-5.20100	-2.48293	-5.72799	-2.49458
1842.000	-4.67117	-2.57000	-5.23041	-2.62912
1843.000	-4.18379	-2.72811	-4.81254	-2.86222
1844.000	-3.81589	-2.76894	-4.23492	-3.06237
1845.000	-3.33736	-2.86548	-3.80999	-3.11938
1846.000	-3.16394	-3.03437	-3.36888	-3.28125
1847.000	-2.74198	-3.09695	-2.99244	-3.49032
1848.000	-2.37302	-3.12360	-2.63152	-3.63196
1849.000	-2.08284	-3.15197	-2.29407	-3.67049
1850.000	-1.66417	-3.17651	-1.92685	-3.62977
1851.000	-1.35202	-3.21860	-1.70367	-3.63220
1852.000	-1.07141	-3.18919	-1.45279	-3.61679
1853.000	-0.69192	-3.23116	-1.15837	-3.74398
1854.000	-0.38551	-3.21347	-0.80854	-3.68693
1855.000	-0.04745	-3.22743	-0.53773	-3.74656
1856.000	0.30050	-3.25316	-0.21154	-3.85564
1857.000	0.72947	-3.28665	0.09292	-3.73088
1858.000	1.01410	-3.41526	0.40923	-3.68126
1859.000	1.38166	-3.40093	0.75122	-3.73254
1860.000	1.72935	-3.46575	1.00817	-3.89863
1861.000	2.04730	-3.59386	1.33819	-3.81700
1862.000	2.29802	-3.53386	1.54959	-3.77704
1863.000	2.60192	-3.55682	1.88735	-3.86942
1864.000	2.70648	-3.54860	1.91303	-3.81393
1865.000	2.90962	-3.48662	2.07297	-3.84721
1866.000	2.93328	-3.49843	2.12233	-3.89063
1867.000	2.94117	-3.47663	2.00386	-3.87707
1868.000	2.88201	-3.42930	1.90315	-3.88521
1869.000	2.82482	-3.36809	1.82218	-3.82205
1870.000	2.68083	-3.26154	1.78268	-3.84589
1871.000	2.50130	-3.28776	1.70762	-3.83614
1872.000	2.35131	-3.24453	1.48835	-3.79893
1873.000	2.23091	-3.14571	1.40537	-3.93963
1874.000	2.09864	-3.15590	1.29472	-3.84280
1875.000	1.99794	-3.11843	1.27496	-3.92401
1876.000	1.92883	-3.17605	1.21172	-3.93598
1877.000	1.90118	-3.16024	1.19394	-3.88849
1878.000	1.94462	-3.21170	1.26903	-3.92006
1879.000	1.88143	-3.24551	1.32238	-3.95956
1880.000	1.95450	-3.28501	1.36783	-3.95553
1881.000	2.03941	-3.34825	1.51601	-4.02652
1882.000	2.16181	-3.33808	1.54169	-4.01856
1883.000	2.23880	-3.45677	1.69972	-3.92523
1884.000	2.30986	-3.48828	1.76095	-3.97063
1885.000	2.41644	-3.49990	1.79848	-4.03387
1886.000	2.53089	-3.51742	1.90908	-4.07120
1887.000	2.60192	-3.54692	2.00781	-4.03140
1888.000	2.73212	-3.51289	2.08482	-3.99560
1889.000	2.77157	-3.50684	1.99794	-3.99977
1890.000	2.87807	-3.49860	2.16576	-4.00330
1891.000	2.92737	-3.48855	2.14602	-3.96774
1892.000	2.90371	-3.53811	2.15984	-4.05079
1893.000	2.93131	-3.56969	2.14602	-4.04292
1894.000	2.92737	-3.55189	2.08087	-3.99165
1895.000	2.95695	-3.51419	2.15392	-4.03894
1896.000	2.95300	-3.47263	2.14602	-4.02314
1897.000	2.94117	-3.52611	2.09864	-3.96390
1898.000	2.92737	-3.46677	2.11048	-4.10235
1899.000	2.93526	-3.46873	2.01769	-4.08479
1900.000	2.89779	-3.47082	2.03743	-3.95416
1901.000	2.91554	-3.45295	2.00584	-4.04921
1902.000	2.87215	-3.41349	1.99004	-4.04727
1903.000	2.85441	-3.43136	1.88933	-4.02970
1904.000	2.85243	-3.41355	1.93475	-4.12258
1905.000	2.84454	-3.39377	2.00386	-4.05119
1906.000	2.82088	-3.39582	1.93278	-4.06917
1907.000	2.78735	-3.39988	1.92290	-4.01578
1908.000	2.75974	-3.41184	1.89723	-4.01781
1909.000	2.76960	-3.43161	1.86366	-3.99217
1910.000	2.73015	-3.41984	1.88341	-4.03763
1911.000	2.78538	-3.40582	1.80638	-4.02791
1912.000	2.72423	-3.42580	1.78861	-4.01212
1913.000	2.71042	-3.43178	1.79453	-4.04377
1914.000	2.71240	-3.39811	1.81231	-4.05164
1915.000	2.74790	-3.38613	1.87551	-4.00006
1916.000	2.72423	-3.39016	1.76688	-4.00821
1917.000	2.74198	-3.36634	1.82021	-3.99029
1918.000	2.71831	-3.37037	1.82811	-3.94871
1919.000	2.71042	-3.37633	1.87156	-4.02381
1920.000	2.65913	-3.41608	1.83996	-3.91306
1921.000	2.72620	-3.36243	1.83601	-3.94474
1922.000	2.68675	-3.37640	1.92093	-3.97423
1923.000	2.70253	-3.34863	1.77676	-3.96268
1924.000	2.67886	-3.36058	1.83206	-4.01005
1925.000	2.71831	-3.40799	1.87156	-3.94664
1926.000	2.71240	-3.41395	1.76886	-3.98446
1927.000	2.73212	-3.39805	1.87353	-4.00204
1928.000	2.72423	-3.35055	1.80046	-3.99627
1929.000	2.72029	-3.40205	1.78663	-4.00421
1930.000	2.71240	-3.46741	1.86366	-4.05944
1931.000	2.69464	-3.41202	1.84588	-3.97638
1932.000	2.73409	-3.45745	1.87353	-3.99017
1933.000	2.72423	-3.43966	1.89130	-3.98419
1934.000	2.76763	-3.47715	1.85181	-3.98230
1935.000	2.77354	-3.41774	1.86958	-4.00205
1936.000	2.74396	-3.42970	1.92488	-3.96828
1937.000	2.70451	-3.48921	1.89130	-3.95451
1938.000	2.75776	-3.41382	1.82811	-3.93684
1939.000	2.75382	-3.47917	1.88735	-4.03367
1940.000	2.74987	-3.42177	1.82811	-3.94871
1941.000	2.75974	-3.43758	1.91303	-4.00195
1942.000	2.77946	-3.43752	1.90908	-3.98811
1943.000	2.70253	-3.45358	1.94265	-4.00979
1944.000	2.75579	-3.40393	1.94265	-3.98803
1945.000	2.78143	-3.44543	1.91895	-3.97423
1946.000	2.78143	-3.45137	1.95055	-4.02560
1947.000	2.78538	-3.46918	1.91500	-3.97622
1948.000	2.79327	-3.48104	1.86958	-4.02975
1949.000	2.78538	-3.43750	1.88143	-3.97432
1950.000	2.77946	-3.42762	1.82218	-3.93091
1951.000	2.79524	-3.46321	1.97029	-4.00379
1952.000	2.76565	-3.47716	1.93672	-3.95836
1953.000	2.74790	-3.49107	1.87946	-4.09897
1954.000	2.77749	-3.42169	1.97622	-4.00773
1955.000	2.80510	-3.45130	1.87748	-4.00203
1956.000	2.80510	-3.46714	1.91895	-4.04151
1957.000	2.74790	-3.45147	1.93278	-3.94848
1958.000	2.77946	-3.45138	1.82416	-3.99226
1959.000	2.73015	-3.45944	1.87551	-4.01786
1960.000	2.79524	-3.43549	1.94857	-4.05726
1961.000	2.75974	-3.43758	1.92093	-4.01578
1962.000	2.77552	-3.40585	1.96240	-4.02953
1963.000	2.76565	-3.45142	1.94067	-4.05135
1964.000	2.77157	-3.49100	1.91895	-4.07316
1965.000	2.77552	-3.41773	1.91105	-4.07516
1966.000	2.77749	-3.45139	1.95252	-4.02956
1967.000	2.76960	-3.46725	1.93278	-4.05928
1968.000	2.80905	-3.42555	1.93870	-4.06916
1969.000	2.76763	-3.41973	1.91500	-4.00788
1970.000	2.73015	-3.44558	1.90118	-4.04946
1971.000	2.73015	-3.43964	1.95055	-4.04341
1972.000	2.74396	-3.47326	1.84391	-4.04959
1973.000	2.75185	-3.46136	1.86563	-4.04361
1974.000	2.73212	-3.43568	1.91303	-4.09889
1975.000	2.74790	-3.47919	1.93870	-4.07311
1976.000	2.79524	-3.44737	1.96635	-4.09678
1977.000	2.75579	-3.45739	1.89525	-4.08311
1978.000	2.77552	-3.46129	1.90315	-4.07122
1979.000	2.80116	-3.44340	1.92093	-4.03754
1980.000	2.78143	-3.44939	1.88538	-4.01982
1981.000	2.75974	-3.50489	1.91105	-3.99997
1982.000	2.77946	-3.42168	1.96832	-4.06315
1983.000	2.80510	-3.43151	1.90118	-4.04353
1984.000	2.74987	-3.45345	1.93475	-4.06323
1985.000	2.78143	-3.46523	1.86168	-4.04955
1986.000	2.77354	-3.41576	2.02361	-3.99575
1987.000	2.76171	-3.46133	1.96240	-4.08888
1988.000	2.79721	-3.40381	1.93870	-4.02761
1989.000	2.82680	-3.41560	2.01769	-4.01555
1990.000	2.77749	-3.45535	1.92093	-4.06326
1991.000	2.79918	-3.43746	1.89723	-4.07519
1992.000	2.76368	-3.47518	1.94265	-4.01573
1993.000	2.83666	-3.44329	1.91500	-3.99601
1994.000	2.81891	-3.47700	1.98412	-3.95429
1995.000	2.80116	-3.42360	1.92093	-4.00589
1996.000	2.80510	-3.47704	1.86958	-3.98028
1997.000	2.79918	-3.42954	1.91500	-4.05932
1998.000	2.82482	-3.43739	1.91303	-3.97820
1999.000	2.80510	-3.38795	1.88538	-4.07324
2000.000	2.79721	-3.48103	1.89525	-3.99407
2001.000	2.79129	-3.45926	1.90118	-3.93470
2002.000	2.79524	-3.43153	1.92883	-4.03753
2003.000	2.72620	-3.48321	1.97424	-4.07698
2004.000	2.77749	-3.50682	2.00584	-4.03338
2005.000	2.77157	-3.51080	1.93475	-4.00190
2006.000	2.72620	-3.48321	1.88341	-3.98817
2007.000	2.78735	-3.50283	1.92093	-4.00984
2008.000	2.78538	-3.55628	1.98214	-3.94044
2009.000	2.79721	-3.51270	1.97424	-3.98993
2010.000	2.75382	-3.52075	1.94660	-3.99198
2011.000	2.80313	-3.51268	1.96437	-4.04733
2012.000	2.81496	-3.45524	1.96240	-3.92070
2013.000	2.77946	-3.52463	1.94660	-3.97615
2014.000	2.79721	-3.51270	1.87748	-3.98620
2015.000	2.79524	-3.51073	1.88538	-3.93473
2016.000	2.80510	-3.52455	1.88538	-3.92682
2017.000	2.79524	-3.54438	1.96437	-3.92861
2018.000	2.81693	-3.47503	1.92488	-3.93662
2019.000	2.82285	-3.46511	1.93080	-4.02367
2020.000	2.82877	-3.48885	1.98214	-3.97013
2021.000	2.81299	-3.50077	1.89920	-3.98219
2022.000	2.77749	-3.50088	1.92093	-3.96038
2023.000	2.82088	-3.49085	1.97227	-3.97609
2024.000	2.80116	-3.53644	1.89920	-3.96834
2025.000	2.83666	-3.50862	2.00584	-3.95424
2026.000	2.83074	-3.50666	1.92883	-3.99598
2027.000	2.79327	-3.51271	1.94660	-3.95834
2028.000	2.82877	-3.53042	1.89328	-3.98221
2029.000	2.84060	-3.53434	1.93080	-3.98806
2030.000	2.82482	-3.50866	1.90513	-3.98416
2031.000	2.79524	-3.52656	1.96042	-3.99986
2032.000	2.82877	-3.52844	2.01176	-3.98588
2033.000	2.83468	-3.53238	1.96042	-4.03349
2034.000	2.80510	-3.52653	1.89130	-3.96836
2035.000	2.80313	-3.50872	1.90315	-4.00593
2036.000	2.80707	-3.50277	1.85378	-4.01396
2037.000	2.83074	-3.50666	1.89723	-3.96043
2038.000	2.87018	-3.48674	1.90118	-3.98615
2039.000	2.89187	-3.49262	1.87946	-4.03962
2040.000	2.84849	-3.51650	1.98807	-3.94637
2041.000	2.88990	-3.47085	1.92290	-3.96631
2042.000	2.83074	-3.53833	1.87748	-3.99807
2043.000	2.90962	-3.45891	1.94660	-4.01572
2044.000	2.87610	-3.47287	1.89525	-3.93471
2045.000	2.83271	-3.50467	1.99004	-3.98792
2046.000	2.86624	-3.46498	1.94265	-3.94450
2047.000	2.87807	-3.49464	1.96042	-3.96226
2048.000	2.85835	-3.50856	1.87551	-4.01786
2049.000	2.84454	-3.54027	1.99794	-3.94634
2050.000	2.81891	-3.53045	1.92290	-3.95641
2051.000	2.87018	-3.53227	1.93080	-3.94254
2052.000	2.83271	-3.50665	1.97819	-4.00575
2053.000	2.88990	-3.48075	1.98609	-3.98793
2054.000	2.86624	-3.48874	1.93475	-3.95243
2055.000	2.85441	-3.50659	2.00386	-3.97601
2056.000	2.88004	-3.46494	1.83601	-4.05555
2057.000	2.89779	-3.49656	1.92488	-4.03753
2058.000	2.89976	-3.50645	1.88735	-3.93275
2059.000	2.85243	-3.45908	1.93672	-3.98211
2060.000	2.86624	-3.46894	1.92685	-3.97421
2061.000	2.85638	-3.46897	2.00386	-4.00371
2062.000	2.86624	-3.47488	1.91500	-3.90696
2063.000	2.89385	-3.45896	1.94462	-3.96032
2064.000	2.92737	-3.42718	1.92685	-3.95838
2065.000	2.82680	-3.47500	1.95647	-3.93655
2066.000	2.90568	-3.45100	2.00979	-3.95423
2067.000	2.89976	-3.47874	1.97029	-3.97213
2068.000	2.86821	-3.49071	1.89328	-3.93669
2069.000	2.88793	-3.49659	1.89920	-3.97230
2070.000	2.91357	-3.47276	1.88341	-4.01587
2071.000	2.86032	-3.43728	1.95055	-3.97020
2072.000	2.87018	-3.49862	2.05718	-4.00160
2073.000	2.90962	-3.45891	1.95450	-3.92270
2074.000	2.86624	-3.45508	1.99202	-3.99187
2075.000	2.87610	-3.44713	1.98609	-3.97210
2076.000	2.88793	-3.44710	2.00781	-3.97798
2077.000	2.89385	-3.44906	2.01176	-3.97006
2078.000	2.86624	-3.50061	1.97819	-4.02158
2079.000	2.89385	-3.46886	1.99004	-3.99583
2080.000	2.87807	-3.53621	2.03151	-3.99177
2081.000	2.87215	-3.45506	2.01769	-3.93047
2082.000	2.91554	-3.46087	1.92488	-3.98609
2083.000	2.90765	-3.48069	1.94857	-3.94250
2084.000	2.87807	-3.44713	2.05520	-4.01545
2085.000	2.89779	-3.51437	2.04730	-4.00163
2086.000	2.92540	-3.47668	2.02558	-4.00366
2087.000	2.90765	-3.49257	2.05520	-4.01941
2088.000	2.88201	-3.50848	2.01176	-3.99973
2089.000	2.87413	-3.48871	1.95055	-3.99395
2090.000	2.85441	-3.47294	2.06705	-3.99168
2091.000	2.88399	-3.49066	2.02361	-3.99971
2092.000	2.84652	-3.50859	1.98609	-3.99980
2093.000	2.89779	-3.50250	1.99202	-3.98989
2094.000	2.86427	-3.47291	1.97029	-3.98598
2095.000	2.87610	-3.43130	1.98017	-3.99190
2096.000	2.86427	-3.51250	2.00781	-4.03338
2097.000	2.87018	-3.42933	2.00781	-3.99777
2098.000	2.86427	-3.46301	1.93475	-3.96628
2099.000	2.85046	-3.43533	1.99597	-3.95822
2100.000	2.85638	-3.45511	1.99991	-3.97800
2101.000	2.78932	-3.53450	1.96240	-3.96226
2102.000	2.83271	-3.46904	1.95845	-4.06120
2103.000	2.81891	-3.49284	2.01769	-3.95619
2104.000	2.94314	-3.45683	1.98412	-4.08883
2105.000	2.90765	-3.51830	2.02953	-4.09069
2106.000	3.00229	-3.47644	2.12825	-4.00538
2107.000	3.08509	-3.45044	2.28618	-3.96934
2108.000	3.35509	-3.45546	2.48748	-3.98657
2109.000	3.62690	-3.43270	2.69859	-3.95228
2110.000	4.01858	-3.43312	3.06538	-3.84028
2111.000	4.45311	-3.39957	3.48314	-3.80112
2112.000	4.84591	-3.25741	3.87297	-3.62552
2113.000	5.37742	-3.12045	4.40201	-3.42945
2114.000	5.84345	-3.07257	4.87535	-3.28888
2115.000	6.36338	-2.89213	5.30882	-3.11882
2116.000	6.89980	-2.77078	5.71624	-2.90151
2117.000	7.42918	-2.60222	6.16608	-2.65840
2118.000	7.84866	-2.38526	6.53711	-2.52434
2119.000	8.25568	-2.20203	7.01668	-2.31487
2120.000	8.60969	-2.04876	7.25415	-2.17968
2121.000	8.95147	-1.87414	7.60989	-2.03416
2122.000	9.20979	-1.66679	7.89328	-1.85761
2123.000	9.54465	-1.53188	8.01932	-1.80194
2124.000	9.86351	-1.42661	8.34280	-1.68052
2125.000	10.09938	-1.33553	8.52850	-1.58928
2126.000	10.31385	-1.25638	8.74493	-1.60802
2127.000	10.62737	-1.31374	8.98619	-1.63249
2128.000	10.79724	-1.29347	9.04597	-1.63222
2129.000	11.05074	-1.27871	9.32533	-1.75058
2130.000	11.31140	-1.30875	9.51004	-1.69476
2131.000	11.55072	-1.35051	9.68111	-1.80362
2132.000	11.70814	-1.43930	9.90572	-1.88463
2133.000	11.96381	-1.45741	10.00354	-1.86058
2134.000	12.14155	-1.49726	10.24111	-1.80640
2135.000	12.26808	-1.51986	10.43436	-1.80529
2136.000	12.39450	-1.44922	10.60636	-1.82968
2137.000	12.51326	-1.46797	10.73428	-1.77228
2138.000	12.56789	-1.49870	10.79724	-1.85976
2139.000	12.52645	-1.42131	10.88115	-1.79483
2140.000	12.51515	-1.42526	10.80296	-1.73088
2141.000	12.43976	-1.35966	10.82013	-1.70930
2142.000	12.34357	-1.42425	10.76099	-1.66082
2143.000	12.18878	-1.39594	10.60445	-1.60110
2144.000	12.04893	-1.36167	10.50509	-1.60749
2145.000	11.85024	-1.30429	10.41906	-1.65876
2146.000	11.66833	-1.33436	10.44966	-1.65273
2147.000	11.56211	-1.33877	10.28323	-1.60667
2148.000	11.39692	-1.38633	10.22005	-1.66764
2149.000	11.32281	-1.35744	10.22388	-1.73217
2150.000	11.25056	-1.41434	10.26026	-1.62244
2151.000	11.22584	-1.36570	10.27940	-1.73382
2152.000	11.19730	-1.35999	10.21431	-1.70679
2153.000	11.20491	-1.41651	10.27748	-1.63408
2154.000	11.26767	-1.41425	10.32916	-1.66119
2155.000	11.37222	-1.37865	10.44010	-1.60587
2156.000	11.43111	-1.37837	10.58535	-1.57189
2157.000	11.55452	-1.39724	10.61782	-1.64206
2158.000	11.67971	-1.38299	10.56242	-1.54660
2159.000	11.80668	-1.38235	10.69419	-1.51664
2160.000	11.91650	-1.37206	10.83539	-1.54326
2161.000	12.02245	-1.35597	10.83348	-1.48860
2162.000	12.11887	-1.34771	10.88306	-1.43954
2163.000	12.20200	-1.39587	10.86781	-1.40252
2164.000	12.25109	-1.42281	10.82967	-1.43980
2165.000	12.29829	-1.39730	10.90784	-1.42966
2166.000	12.28696	-1.29634	10.84874	-1.47485
2167.000	12.28507	-1.36046	10.79343	-1.45755
2168.000	12.31904	-1.29618	10.83539	-1.49640
2169.000	12.29451	-1.35264	10.72282	-1.50673
2170.000	12.27752	-1.31776	10.81632	-1.50626
2171.000	12.23032	-1.31799	10.78770	-1.49664
2172.000	12.18878	-1.30848	10.78198	-1.48885
2173.000	12.19444	-1.27153	10.80487	-1.55513
2174.000	12.17366	-1.26579	10.75145	-1.48900
2175.000	12.09808	-1.26226	10.69992	-1.51270
2176.000	12.14344	-1.23095	10.69038	-1.56940
2177.000	12.06216	-1.24688	10.74000	-1.58086
2178.000	12.07161	-1.23905	10.79915	-1.51025
2179.000	12.08674	-1.26232	10.67128	-1.50307
2180.000	12.08485	-1.30121	10.69610	-1.53030
2181.000	12.05460	-1.28775	10.66174	-1.57345
2182.000	12.02812	-1.29177	10.66938	-1.50113
2183.000	11.99786	-1.30553	10.62164	-1.57561
2184.000	12.00921	-1.29964	10.62928	-1.55799
2185.000	11.98840	-1.27251	10.60063	-1.59917
2186.000	11.96570	-1.31541	10.64837	-1.53640
2187.000	11.98651	-1.32309	10.59108	-1.50542
2188.000	11.92786	-1.31559	10.56242	-1.59937
2189.000	11.91650	-1.31954	10.59299	-1.54059
2190.000	11.94110	-1.35832	10.52420	-1.49598
2191.000	11.92218	-1.33896	10.57579	-1.53872
2192.000	11.95057	-1.35439	10.57197	-1.50161
2193.000	11.92596	-1.30587	10.50892	-1.54296
2194.000	11.91650	-1.30397	10.52420	-1.50966
2195.000	11.90704	-1.30791	10.52420	-1.47252
2196.000	11.92596	-1.30976	10.45539	-1.53932
2197.000	11.96003	-1.30960	10.46495	-1.48453
2198.000	11.93353	-1.29416	10.44583	-1.50027
2199.000	11.91839	-1.27673	10.53185	-1.45880
2200.000	11.92029	-1.30395	10.50318	-1.40029
2201.000	11.96003	-1.34267	10.61018	-1.47211
2202.000	11.98273	-1.30754	10.58344	-1.52891
2203.000	11.93353	-1.34669	10.58153	-1.46834
2204.000	11.95246	-1.32131	10.52229	-1.50380
2205.000	11.94678	-1.31355	10.54331	-1.52716
2206.000	11.95624	-1.32129	10.50127	-1.49804
2207.000	11.96192	-1.34266	10.62355	-1.52090
2208.000	11.97895	-1.33479	10.48407	-1.52354
2209.000	11.98462	-1.32309	10.59299	-1.57381
2210.000	11.97138	-1.32121	10.70756	-1.51852
2211.000	11.96381	-1.35626	10.54905	-1.50367
2212.000	11.98462	-1.34255	10.53758	-1.49591
2213.000	11.96949	-1.32706	10.44774	-1.52958
2214.000	11.96003	-1.33100	10.58153	-1.53869
2215.000	12.00165	-1.31329	10.53567	-1.52133
2216.000	12.00354	-1.40080	10.55478	-1.47824
2217.000	11.97327	-1.36205	10.63692	-1.52278
2218.000	11.99975	-1.35414	10.56242	-1.63259
2219.000	11.98651	-1.36393	10.60445	-1.48191
2220.000	11.96949	-1.36791	10.62928	-1.63223
2221.000	11.97138	-1.34845	10.56242	-1.53097
2222.000	11.95435	-1.32713	10.60254	-1.46628
2223.000	12.02434	-1.35985	10.55478	-1.53296
2224.000	11.98840	-1.31530	10.69228	-1.57525
2225.000	11.99408	-1.33861	10.53185	-1.50376
2226.000	11.96381	-1.30569	10.51465	-1.56834
2227.000	11.99597	-1.34638	10.54714	-1.49196
2228.000	12.00165	-1.31134	10.59872	-1.48389
2229.000	11.99219	-1.34251	10.53949	-1.48808
2230.000	11.99408	-1.33083	10.52803	-1.51550
2231.000	12.00921	-1.30158	10.61018	-1.48774
2232.000	12.00165	-1.31134	10.58153	-1.53478
2233.000	11.99408	-1.34639	10.60636	-1.45649
2234.000	11.97138	-1.27648	10.57962	-1.46444
2235.000	12.01867	-1.32487	10.62928	-1.45443
2236.000	11.99975	-1.31524	10.69801	-1.52248
2237.000	11.96570	-1.36793	10.55287	-1.42938
2238.000	11.99219	-1.38724	10.62546	-1.57950
2239.000	12.03569	-1.37535	10.64646	-1.59698
2240.000	11.96570	-1.35042	10.60445	-1.56398
2241.000	11.98084	-1.32506	10.65983	-1.55783
2242.000	12.02245	-1.39486	10.72664	-1.51061
2243.000	11.99219	-1.39308	10.63310	-1.55211
2244.000	11.99219	-1.31333	10.61973	-1.49942
2245.000	12.02623	-1.36567	10.67510	-1.47375
2246.000	11.98462	-1.36005	10.67510	-1.63004
2247.000	11.99219	-1.32889	10.63501	-1.49739
2248.000	12.00921	-1.33464	10.69610	-1.51272
2249.000	11.99030	-1.36975	10.72664	-1.50085
2250.000	12.00732	-1.35799	10.64837	-1.49342
2251.000	11.98084	-1.30561	10.70756	-1.48922
2252.000	12.05649	-1.33441	10.66938	-1.54802
2253.000	12.03569	-1.38118	10.60636	-1.53270
2254.000	12.00354	-1.41830	10.71519	-1.57513
2255.000	11.96570	-1.39127	10.61209	-1.57566
2256.000	11.99975	-1.40082	10.69419	-1.56352
2257.000	11.99975	-1.39498	10.74000	-1.57305
2258.000	12.01489	-1.41240	10.65983	-1.53048
2259.000	11.98651	-1.37560	10.70374	-1.64941
2260.000	12.00732	-1.38716	10.69610	-1.60062
2261.000	12.02623	-1.37540	10.67892	-1.60071
2262.000	11.99408	-1.36389	10.61400	-1.56198
2263.000	12.02245	-1.37736	10.68083	-1.55187
2264.000	11.99975	-1.36970	10.60445	-1.51513
2265.000	11.99786	-1.37943	10.64073	-1.56965
2266.000	12.00354	-1.36579	10.69610	-1.52053
2267.000	11.98273	-1.37562	10.62546	-1.52284
2268.000	11.97327	-1.37567	10.65219	-1.46800
2269.000	11.98840	-1.33086	10.62355	-1.47791
2270.000	11.96759	-1.31734	10.68847	-1.49713
2271.000	11.99786	-1.35026	10.59490	-1.53276
2272.000	11.98840	-1.32891	10.74191	-1.52812
2273.000	11.97705	-1.34647	10.61973	-1.53850
2274.000	12.00732	-1.38327	10.62737	-1.56972
2275.000	11.98651	-1.35615	10.67319	-1.53823
2276.000	12.00354	-1.36968	10.58726	-1.44095
2277.000	12.01110	-1.36964	10.52803	-1.62496
2278.000	12.02245	-1.33847	10.59872	-1.64607
2279.000	11.99030	-1.36586	10.71519	-1.57513
2280.000	11.98651	-1.35810	10.67892	-1.59876
2281.000	11.99408	-1.34833	10.69992	-1.54982
2282.000	11.99786	-1.36387	10.70374	-1.57910
2283.000	12.00921	-1.31519	10.67319	-1.56949
2284.000	12.00732	-1.39689	10.56815	-1.54853
2285.000	11.99030	-1.39697	10.69419	-1.47756
2286.000	11.97705	-1.35620	10.70374	-1.55566
2287.000	11.99786	-1.36971	10.61018	-1.61280
2288.000	11.99975	-1.36581	10.69992	-1.60256
2289.000	11.99408	-1.35028	10.67128	-1.55778
2290.000	12.00165	-1.38719	10.68274	-1.54990
2291.000	12.00354	-1.36968	10.56051	-1.58765
2292.000	11.97327	-1.34455	10.62355	-1.61859
2293.000	12.01867	-1.38321	10.68847	-1.55769
2294.000	11.96192	-1.34460	10.71137	-1.53022
2295.000	12.03002	-1.35593	10.65792	-1.52268
2296.000	11.97138	-1.34845	10.70565	-1.55955
2297.000	12.02056	-1.34431	10.71901	-1.50870
2298.000	12.02434	-1.35790	10.66365	-1.59689
2299.000	12.01678	-1.37739	10.69419	-1.45607
2300.000	12.03569	-1.33451	10.69610	-1.52444
2301.000	12.00543	-1.35217	10.70565	-1.49118
2302.000	12.02056	-1.37737	10.70946	-1.54195
2303.000	11.99975	-1.34830	10.75718	-1.61397
2304.000	12.01489	-1.38518	10.70565	-1.63768
2305.000	12.00543	-1.36578	10.67319	-1.55777
2306.000	12.01489	-1.35795	10.73809	-1.54571
2307.000	12.00921	-1.37548	10.71328	-1.57514
2308.000	12.03947	-1.32671	10.71519	-1.55364
2309.000	11.99219	-1.37363	10.75718	-1.54952
2310.000	11.99030	-1.34446	10.74382	-1.62967
2311.000	11.97895	-1.37758	10.65983	-1.62816
2312.000	12.01110	-1.35992	10.71710	-1.53410
2313.000	12.03758	-1.39478	10.64837	-1.57548
2314.000	11.99975	-1.40665	10.62546	-1.58341
2315.000	12.03569	-1.35590	10.74573	-1.53396
2316.000	12.00921	-1.33075	10.62164	-1.56975
2317.000	11.99975	-1.39498	10.68847	-1.57722
2318.000	12.01678	-1.36961	10.60254	-1.59134
2319.000	11.98462	-1.36977	10.62546	-1.56192
2320.000	12.01867	-1.34043	10.67701	-1.56947
2321.000	12.01489	-1.36184	10.62928	-1.56971
2322.000	12.00732	-1.37355	10.70374	-1.59668
2323.000	11.98840	-1.30557	10.68847	-1.55378
2324.000	11.99030	-1.37364	10.68465	-1.52840
2325.000	12.00354	-1.36773	10.76672	-1.49479
2326.000	11.98273	-1.38923	10.77626	-1.57872
2327.000	12.01110	-1.34047	10.69419	-1.62212
2328.000	11.97705	-1.36009	10.67892	-1.57532
2329.000	12.00354	-1.38913	10.73618	-1.52619
2330.000	12.02623	-1.39679	10.70374	-1.55370
2331.000	11.98651	-1.40672	10.65410	-1.57935
2332.000	11.97895	-1.37369	10.63501	-1.51107
2333.000	11.98462	-1.36977	10.72092	-1.63955
2334.000	11.96570	-1.41850	10.70183	-1.59473
2335.000	11.99219	-1.34056	10.67319	-1.59098
2336.000	11.98273	-1.40090	10.67701	-1.57533
2337.000	11.96381	-1.35237	10.71901	-1.55948
2338.000	11.99786	-1.37165	10.66747	-1.57733
2339.000	11.97705	-1.38537	10.70565	-1.52439
2340.000	11.96381	-1.37766	10.66747	-1.53826
2341.000	11.98651	-1.40672	10.69801	-1.53224
2342.000	11.95624	-1.39521	10.59872	-1.58746
2343.000	11.99219	-1.35223	10.67510	-1.55971
2344.000	11.98840	-1.37170	10.69038	-1.55572
2345.000	11.98273	-1.41646	10.63501	-1.59704
2346.000	12.00921	-1.41827	10.73428	-1.52034
2347.000	11.96759	-1.36792	10.81250	-1.48675
2348.000	11.94678	-1.39136	10.69228	-1.58502
2349.000	11.99219	-1.38919	10.72282	-1.52431
2350.000	11.96381	-1.40100	10.78770	-1.53374
2351.000	11.97327	-1.43013	10.71710	-1.59856
2352.000	11.96759	-1.36403	10.62737	-1.64983
2353.000	11.95624	-1.35630	10.73618	-1.52033
2354.000	11.96381	-1.34265	10.69038	-1.54596
2355.000	11.99219	-1.34834	10.81632	-1.59218
2356.000	11.98840	-1.35420	10.65219	-1.55592
2357.000	12.00354	-1.37746	10.60636	-1.55615
2358.000	11.96949	-1.34068	10.63119	-1.57361
2359.000	11.97705	-1.40093	10.68656	-1.51277
2360.000	11.91461	-1.34289	10.70183	-1.55567
2361.000	11.95057	-1.36800	10.74954	-1.54370
2362.000	11.99597	-1.34638	10.77244	-1.54944
2363.000	11.97138	-1.35428	10.66938	-1.57927
2364.000	11.93353	-1.38560	10.66174	-1.57931
2365.000	11.95624	-1.40104	10.76290	-1.56707
2366.000	11.97327	-1.36400	10.76672	-1.64321
2367.000	11.92975	-1.37394	10.64837	-1.58720
2368.000	11.97705	-1.35425	10.70183	-1.56153
2369.000	11.96381	-1.33876	10.66174	-1.57541
2370.000	11.98273	-1.40674	10.65028	-1.57351
2371.000	11.97516	-1.38733	10.67319	-1.54800
2372.000	11.98084	-1.35423	10.71519	-1.55169
2373.000	11.98273	-1.35811	10.63501	-1.47590
2374.000	11.97138	-1.36206	10.70565	-1.55955
2375.000	11.94678	-1.34468	10.67128	-1.56364
2376.000	11.96570	-1.36209	10.71137	-1.57515
2377.000	11.94867	-1.39524	10.72664	-1.50280
2378.000	11.98084	-1.40091	10.68847	-1.55378
2379.000	11.96949	-1.40486	10.66556	-1.56367
2380.000	11.94110	-1.35443	10.62546	-1.50721
2381.000	11.97138	-1.42625	10.75908	-1.52998
2382.000	11.98273	-1.43591	10.65601	-1.51878
2383.000	11.97705	-1.41649	10.72092	-1.53408
2384.000	11.97895	-1.39898	10.70756	-1.46969
2385.000	11.97138	-1.38346	10.68274	-1.47762
2386.000	11.97895	-1.45927	10.75908	-1.58076
2387.000	11.95813	-1.34268	10.77435	-1.49670
2388.000	11.97138	-1.37568	10.67319	-1.50893
2389.000	11.94678	-1.42054	10.76672	-1.55533
2390.000	11.92786	-1.40119	10.61018	-1.54636
2391.000	11.96759	-1.39515	10.71901	-1.49112
2392.000	11.95813	-1.43799	10.64073	-1.50322
2393.000	11.97705	-1.42427	10.66174	-1.55001
2394.000	11.94678	-1.39720	10.70183	-1.54590
2395.000	11.97705	-1.39510	10.66747	-1.56170
2396.000	11.94867	-1.40108	10.64837	-1.49537
2397.000	11.96192	-1.39323	10.74382	-1.51834
2398.000	11.98273	-1.39701	10.69992	-1.56935
2399.000	11.95435	-1.36215	10.66174	-1.50507
2400.000	11.95057	-1.43025	10.70756	-1.50875
2401.000	11.97327	-1.42235	10.69610	-1.51858
2402.000	11.93732	-1.39336	10.75336	-1.51634
2403.000	11.92407	-1.42261	10.63882	-1.48174
2404.000	11.95624	-1.38159	10.74382	-1.55545
2405.000	11.96949	-1.43598	10.65219	-1.51880
2406.000	11.95057	-1.37967	10.68847	-1.45806
2407.000	11.97516	-1.46318	10.70565	-1.51267
2408.000	11.98651	-1.44367	10.60827	-1.50143
2409.000	11.98273	-1.46897	10.67892	-1.53625
2410.000	11.97327	-1.47292	10.71137	-1.55757
2411.000	11.98084	-1.39313	10.66365	-1.52460
2412.000	11.98273	-1.36784	10.71519	-1.42667
2413.000	11.95057	-1.38356	10.64455	-1.47585
2414.000	11.91272	-1.35847	10.67510	-1.39560
2415.000	11.83888	-1.24791	10.60063	-1.47606
2416.000	11.72520	-1.19780	10.42671	-1.32242
2417.000	11.61713	-1.08334	10.34829	-1.19364
2418.000	11.44631	-0.96509	10.34446	-1.15258
2419.000	11.28479	-0.78619	10.01312	-0.93834
2420.000	11.07168	-0.57594	9.79633	-0.79000
2421.000	10.79343	-0.33026	9.69647	-0.63338
2422.000	10.55287	-0.03325	9.33496	-0.31213
2423.000	10.27174	0.31321	9.20208	-0.13550
2424.000	10.09171	0.60520	8.99390	0.20829
2425.000	9.90572	0.89946	8.74300	0.47191
2426.000	9.78673	1.14085	8.74880	0.77467
2427.000	9.81169	1.32495	8.66573	0.94394
2428.000	9.75601	1.54267	8.64448	1.14651
2429.000	9.79249	1.67179	8.70630	1.29768
2430.000	9.86735	1.77128	8.75652	1.45078
2431.000	9.92107	1.80623	8.77583	1.55288
2432.000	10.08979	1.78964	8.83568	1.51334
2433.000	10.18175	1.68349	8.98426	1.48130
2434.000	10.24877	1.55794	9.11730	1.43757
2435.000	10.36359	1.48697	9.16355	1.33924
2436.000	10.46304	1.30466	9.15777	1.20184
2437.000	10.53185	1.19294	9.17896	1.12128
2438.000	10.55287	1.05210	9.26564	0.91294
2439.000	10.54331	0.93286	9.31956	0.78915
2440.000	10.51847	0.76280	9.34651	0.66936
2441.000	10.47260	0.68076	9.41579	0.45336
2442.000	10.45539	0.59473	9.40039	0.33170
2443.000	10.39229	0.55963	9.42156	0.27280
2444.000	10.33681	0.52646	9.35998	0.07067
2445.000	10.28323	0.45608	9.41194	0.09617
2446.000	10.31193	0.42081	9.25794	0.02945
2447.000	10.24494	0.42677	9.22327	0.12371
2448.000	10.27748	0.51481	9.28297	0.08443
2449.000	10.28323	0.54025	9.26757	0.20224
2450.000	10.23537	0.61080	9.35421	0.19826
2451.000	10.24303	0.58926	9.25601	0.26311
2452.000	10.24303	0.66364	9.31378	0.35141
2453.000	10.22388	0.72241	9.26757	0.37305
2454.000	10.24686	0.81239	9.14621	0.44192
2455.000	10.22388	0.85160	9.16548	0.54402
2456.000	10.22388	0.94164	9.07875	0.63844
2457.000	10.24494	0.90439	9.09610	0.55198
2458.000	10.25068	0.98070	9.07489	0.72684
2459.000	10.19707	1.02393	9.00548	0.66804
2460.000	10.19707	1.02980	9.02669	0.72890
2461.000	10.17409	1.08077	9.00355	0.80949
2462.000	10.17026	1.02010	8.91481	0.82541
2463.000	10.21814	1.05322	8.92639	0.80770
2464.000	10.19133	1.03178	8.99776	0.82326
2465.000	10.16451	1.10038	9.01898	0.74267
2466.000	10.16451	1.07102	9.01512	0.75446
2467.000	10.17984	1.07880	8.99969	0.76235
2468.000	10.14153	1.06326	8.98812	0.79971
2469.000	10.13770	1.02804	8.88973	0.81368
2470.000	10.14727	1.12393	8.99583	0.85470
2471.000	10.13003	1.04568	9.02476	0.71712
2472.000	10.18558	1.09639	8.96497	0.85673
2473.000	10.11662	1.05747	9.03247	0.76425
2474.000	10.13961	1.05935	9.03826	0.75834
2475.000	10.09746	1.05166	8.93025	0.71730
2476.000	10.17409	1.03967	8.98233	0.77221
2477.000	10.14536	1.10240	9.02476	0.69354
2478.000	10.15302	1.06323	9.02669	0.62085
2479.000	10.15302	1.05735	9.09417	0.77197
2480.000	10.15302	1.05344	9.14621	0.69527
2481.000	10.17792	1.00050	9.01126	0.58355
2482.000	10.16451	1.03382	9.01126	0.74268
2483.000	10.16451	1.06515	9.02862	0.76622
2484.000	10.17984	1.04356	9.07489	0.67184
2485.000	10.15494	1.06126	9.02476	0.66800
2486.000	10.17984	1.06509	9.00548	0.71126
2487.000	10.19133	1.01612	9.04597	0.60707
2488.000	10.15877	1.04755	8.96304	0.71135
2489.000	10.18750	0.97111	9.04983	0.64439
2490.000	10.17792	0.99659	9.05947	0.70723
2491.000	10.21239	1.01018	9.02669	0.72890
2492.000	10.23728	0.96704	9.04983	0.66599
2493.000	10.20856	1.01998	9.07489	0.68755
2494.000	10.19899	1.01414	9.15970	0.61669
2495.000	10.20282	1.02979	9.06525	0.61882
2496.000	10.22388	0.97883	9.02090	0.66015
2497.000	10.16451	0.97314	9.09224	0.69538
2498.000	10.20282	1.06502	9.08646	0.62468
2499.000	10.19707	1.05329	9.05561	0.58151
2500.000	10.21048	1.05129	9.03440	0.66406
2501.000	10.20282	0.99847	9.06140	0.66794
2502.000	10.21622	1.03366	9.00162	0.70341
2503.000	10.22962	0.97294	9.04212	0.60904
2504.000	10.22771	0.99252	9.04597	0.60314
2505.000	10.21431	1.02192	9.05947	0.54418
2506.000	10.21814	0.97885	9.04212	0.67387
2507.000	10.18558	1.01418	9.06911	0.60703
2508.000	10.19516	1.01024	9.08646	0.59128
2509.000	10.21622	0.99451	9.04404	0.66600
2510.000	10.19516	0.99066	9.05754	0.60312
2511.000	10.20090	1.00630	9.02669	0.65032
2512.000	10.17218	1.03967	9.00741	0.66214
2513.000	10.21239	1.08651	9.08067	0.65022
2514.000	10.24111	1.01596	9.08453	0.61093
2515.000	10.20665	1.06500	9.16162	0.71292
2516.000	10.19707	1.01610	9.03055	0.67389
2517.000	10.18750	1.03179	8.94761	0.61116
2518.000	10.20856	1.03172	9.07489	0.67184
2519.000	10.20282	1.01804	9.08453	0.55790
2520.000	10.19324	1.03373	9.04404	0.63850
2521.000	10.21814	0.98472	8.97462	0.66220
2522.000	10.19324	0.97305	9.02669	0.64443
2523.000	10.22580	1.02580	9.00162	0.61500
2524.000	10.22005	1.04343	9.06525	0.61882
2525.000	10.19707	1.06112	8.96304	0.61900
2526.000	10.27557	1.00607	9.05561	0.71116
2527.000	10.17984	0.96135	9.02862	0.71122
2528.000	10.25260	1.02375	8.97269	0.69757
2529.000	10.22771	1.02579	9.08260	0.64236
2530.000	10.16451	1.03970	9.00355	0.75252
2531.000	10.20282	0.99064	9.05947	0.71901
2532.000	10.22197	1.03755	8.97269	0.75062
2533.000	10.23728	1.00032	9.02090	0.70927
2534.000	10.21814	1.01408	9.07682	0.71112
2535.000	10.22580	0.99057	9.09610	0.72090
2536.000	10.20282	0.98672	9.03055	0.64049
2537.000	10.18175	1.04747	9.01512	0.69356
2538.000	10.22388	0.99840	9.10573	0.66589
2539.000	10.22005	1.02582	9.04019	0.70137
2540.000	10.20856	1.04934	9.05947	0.64240
2541.000	10.20856	1.06500	9.03633	0.70531
2542.000	10.19899	1.07677	8.99583	0.75843
2543.000	10.20856	1.00824	9.08839	0.69539
2544.000	10.24111	1.02183	8.99776	0.72110
2545.000	10.26026	1.00024	9.00548	0.72305
2546.000	10.22771	1.03558	9.03247	0.70335
2547.000	10.21622	1.01213	9.06911	0.73274
2548.000	10.22005	1.03169	8.96304	0.70742
2549.000	10.22580	1.01014	9.06525	0.69936
2550.000	10.23345	1.01990	9.02862	0.72104
2551.000	10.20665	1.05522	9.10381	0.70125
2552.000	10.23920	1.06685	9.01705	0.69945
2553.000	10.22962	1.04144	9.09610	0.70519
2554.000	10.23345	1.07079	8.99583	0.73289
2555.000	10.22005	1.07279	9.02283	0.63658
2556.000	10.23537	1.07665	8.96497	0.63471
2557.000	10.19516	1.01807	9.01705	0.67981
2558.000	10.19707	1.00044	8.94182	0.68584
2559.000	10.19516	1.02981	8.96111	0.70938
2560.000	10.17409	1.05533	9.03247	0.58941
2561.000	10.24303	1.07075	9.05368	0.70920
2562.000	10.23728	1.01793	9.02090	0.68176
2563.000	10.21048	1.00432	8.97269	0.68185
2564.000	10.23920	1.03750	8.97655	0.64255
2565.000	10.25834	1.05896	9.01898	0.70141
2566.000	10.25451	1.06093	9.04790	0.58153
2567.000	10.29662	1.04513	9.03826	0.61297
2568.000	10.31193	1.00399	9.09031	0.61092
2569.000	10.27174	1.02565	8.98619	0.68183
2570.000	10.26026	1.00416	8.98426	0.69559
2571.000	10.29854	1.03926	9.01512	0.63070
2572.000	10.25643	1.03353	9.08839	0.59521
2573.000	10.26026	1.04330	9.05947	0.66598
2574.000	10.23728	1.01010	9.07489	0.61095
2575.000	10.25834	1.06287	9.10766	0.59714
2576.000	10.19899	1.04546	9.06525	0.73472
2577.000	10.25068	1.07268	9.00355	0.60517
2578.000	10.22388	1.11388	9.02090	0.59532
2579.000	10.25834	1.05309	9.10188	0.61483
2580.000	10.25834	1.06092	9.14813	0.61868
2581.000	10.23345	1.03947	9.11152	0.66784
2582.000	10.24686	1.04726	9.03440	0.68567
2583.000	10.24494	1.06292	9.06718	0.67775
2584.000	10.25451	1.08246	9.02283	0.59728
2585.000	10.21622	1.03757	9.08839	0.62075
2586.000	10.26217	1.06090	9.08839	0.60307
2587.000	10.19133	1.01221	9.06140	0.63651
2588.000	10.20473	1.05718	9.09995	0.66590
2589.000	10.22580	1.00035	8.97076	0.71722
2590.000	10.22197	0.98862	9.05561	0.62473
2591.000	10.24111	1.01792	8.99583	0.61894
2592.000	10.22005	1.05713	9.10573	0.62857
2593.000	10.27557	1.05695	8.98812	0.71719
2594.000	10.26791	1.04523	9.07875	0.69148
2595.000	10.27940	1.02758	8.99390	0.72897
2596.000	10.29471	1.01579	9.08260	0.74254
2597.000	10.24877	1.04334	9.01898	0.69945
2598.000	10.25068	1.08834	8.99969	0.76628
2599.000	10.24494	1.04335	9.09995	0.66786
2600.000	10.29471	1.00405	9.01705	0.82518
2601.000	10.29088	1.02559	9.02090	0.78392
2602.000	10.27557	1.04325	9.04404	0.72101
2603.000	10.23154	1.02186	9.03247	0.73085
2604.000	10.22962	0.98468	8.94761	0.71727
2605.000	10.22388	0.98862	8.95726	0.68188
2606.000	10.26983	0.98260	8.99005	0.74469
2607.000	10.23728	0.96704	9.04404	0.69744
2608.000	10.21814	0.97102	9.04983	0.73868
2609.000	10.22962	0.99447	8.97269	0.74080
2610.000	10.25260	0.95917	9.05368	0.71706
2611.000	10.23537	0.99249	9.07296	0.68952
2612.000	10.25068	1.01006	9.02862	0.77604
2613.000	10.17601	0.96332	9.12501	0.70317
2614.000	10.26408	1.02176	9.04983	0.70332
2615.000	10.24494	1.04139	9.00548	0.70340
2616.000	10.28897	1.03342	9.05561	0.75438
2617.000	10.34638	0.98823	9.09417	0.76608
2618.000	10.45348	0.97811	9.22520	0.68923
2619.000	10.54714	0.94849	9.23675	0.60674
2620.000	10.60254	0.94050	9.30800	0.59091
2621.000	10.78389	0.85787	9.44849	0.57694
2622.000	10.88878	0.79312	9.57157	0.60812
2623.000	11.06216	0.71847	9.61385	0.54332
2624.000	11.15925	0.66164	9.82896	0.49593
2625.000	11.36082	0.57341	9.98628	0.46826
2626.000	11.46150	0.47963	10.00162	0.37420
2627.000	11.55072	0.42491	10.13961	0.34467
2628.000	11.59626	0.41509	10.20856	0.22320
2629.000	11.63420	0.39555	10.27174	0.16248
2630.000	11.63989	0.31176	10.30045	0.20748
2631.000	11.56970	0.34692	10.21622	0.14880
2632.000	11.53744	0.39179	10.21048	0.17817
2633.000	11.43871	0.35488	10.10896	0.14885
2634.000	11.34942	0.36865	10.20473	0.11356
2635.000	11.26958	0.42143	10.05721	0.18022
2636.000	11.21252	0.46054	9.87694	0.24891
2637.000	11.11357	0.46655	9.83280	0.26267
2638.000	11.13451	0.54849	9.79825	0.27250
2639.000	11.06407	0.52324	9.76369	0.37447
2640.000	11.00884	0.55849	9.76753	0.34898
2641.000	11.02407	0.61508	9.74257	0.42547
2642.000	11.01455	0.62487	9.69839	0.40984
2643.000	11.05645	0.63649	9.75985	0.43722
2644.000	11.10405	0.61882	9.77521	0.53129
2645.000	11.11738	0.58951	9.78097	0.51952
2646.000	11.15164	0.60701	9.80017	0.53321
2647.000	11.19350	0.58741	9.79057	0.52147
2648.000	11.16496	0.62845	9.76177	0.51955
2649.000	11.19920	0.60691	9.83664	0.51944
2650.000	11.19540	0.61277	9.88270	0.49585
2651.000	11.20681	0.62446	9.87310	0.57229
2652.000	11.20111	0.65959	9.86927	0.50175
2653.000	11.22393	0.63417	9.80977	0.55476
2654.000	11.19350	0.60692	9.82896	0.58021
2655.000	11.21632	0.59517	9.92491	0.47815
2656.000	11.20872	0.62055	9.85967	0.52528
2657.000	11.20301	0.67129	9.95368	0.48398
2658.000	11.23344	0.58147	9.91915	0.45660
2659.000	11.24295	0.57755	9.88462	0.52524
2660.000	11.24866	0.53072	9.93833	0.54475
2661.000	11.20681	0.60299	9.89037	0.58598
2662.000	11.25627	0.57753	9.97861	0.56035
2663.000	11.25436	0.54436	9.98053	0.50745
2664.000	11.26197	0.58922	9.93450	0.46442
2665.000	11.24105	0.53073	9.87310	0.47822
2666.000	11.26577	0.53264	9.99970	0.44277
2667.000	11.26767	0.56775	9.89805	0.44487
2668.000	11.26577	0.57751	9.87694	0.37043
2669.000	11.26387	0.55605	9.87502	0.51742
2670.000	11.31330	0.55595	9.86543	0.47431
2671.000	11.29239	0.54819	9.85391	0.42533
2672.000	11.25627	0.57167	9.90572	0.48405
2673.000	11.29810	0.54233	9.95176	0.47223
2674.000	11.28859	0.48773	9.92874	0.42915
2675.000	11.29049	0.55015	9.96902	0.36444
2676.000	11.23344	0.56001	9.85583	0.39985
2677.000	11.26767	0.53849	9.87119	0.46059
2678.000	11.24676	0.55218	9.89037	0.43704
2679.000	11.24676	0.56974	9.97861	0.43105
2680.000	11.23915	0.53269	9.96327	0.45654
2681.000	11.24866	0.55218	9.94025	0.45069
2682.000	11.25436	0.54631	9.86735	0.40571
2683.000	11.25817	0.53070	9.96710	0.46241
2684.000	11.23915	0.52293	9.99395	0.38597
2685.000	11.19540	0.54057	9.94601	0.47224
2686.000	11.23725	0.56196	9.92682	0.46247
2687.000	11.27338	0.54433	9.90189	0.47818
2688.000	11.27908	0.53651	9.97669	0.45456
2689.000	11.24105	0.54244	10.02846	0.45253
2690.000	11.23154	0.55026	9.91723	0.43701
2691.000	11.24676	0.52682	9.94409	0.46244
2692.000	11.22013	0.52296	10.01312	0.40162
2693.000	11.23344	0.56977	10.02463	0.42119
2694.000	11.26007	0.47412	9.99778	0.35266
2695.000	11.27908	0.53066	9.96327	0.40756
2696.000	11.23154	0.51514	9.96135	0.41735
2697.000	11.24485	0.56584	10.02463	0.48192
2698.000	11.22774	0.50539	9.94984	0.46048
2699.000	11.22584	0.53466	9.98053	0.38402
2700.000	11.20872	0.53664	9.99395	0.43886
2701.000	11.22584	0.51710	9.95560	0.36642
2702.000	11.24105	0.53658	9.97286	0.36640
2703.000	11.20111	0.49763	9.96519	0.41539
2704.000	11.23725	0.49562	9.95176	0.42716
2705.000	11.23915	0.54829	9.98053	0.46827
2706.000	11.19159	0.59717	10.06488	0.40351
2707.000	11.25627	0.55997	10.03613	0.35849
2708.000	11.27908	0.49164	10.00929	0.45256
2709.000	11.22964	0.51709	10.05530	0.42703
2710.000	11.25817	0.55411	10.01887	0.43491
2711.000	11.23344	0.57952	9.95943	0.38209
2712.000	11.24105	0.55805	10.04571	0.35848
2713.000	11.25436	0.53461	9.94025	0.37231
2714.000	11.25246	0.49169	9.96902	0.36640
2715.000	11.23725	0.54244	9.96519	0.40363
2716.000	11.19730	0.52886	10.10896	0.40737
2717.000	11.23344	0.51123	10.02079	0.44470
2718.000	11.23344	0.51709	10.00354	0.44669
2719.000	11.25246	0.50340	9.92682	0.38605
2720.000	11.20872	0.55030	9.86735	0.43119
2721.000	11.22393	0.52491	9.97286	0.33113
2722.000	11.21442	0.53273	9.96327	0.38012
2723.000	11.22013	0.57370	9.98053	0.37423
2724.000	11.23344	0.49172	10.00929	0.35264
2725.000	11.22584	0.50539	10.04380	0.42117
2726.000	11.21442	0.57566	10.06296	0.43289
2727.000	11.22393	0.57759	10.03805	0.34674
2728.000	11.29049	0.61647	9.96327	0.39188
2729.000	11.26197	0.53069	9.99203	0.39185
2730.000	11.22584	0.54637	9.99011	0.36638
2731.000	11.24105	0.58731	10.03613	0.42705
2732.000	11.20872	0.57762	10.04763	0.40941
2733.000	11.22774	0.56978	9.92682	0.36645
2734.000	11.18208	0.61085	9.94984	0.36642
2735.000	11.18779	0.54839	9.95176	0.42129
2736.000	11.21062	0.52884	9.96710	0.40755
2737.000	11.20301	0.55617	10.01121	0.37223
2738.000	11.23725	0.55610	9.97094	0.40167
2739.000	11.23344	0.55806	10.01121	0.39182
2740.000	11.24676	0.51901	9.95943	0.43107
2741.000	11.24105	0.50146	9.88846	0.37825
2742.000	11.22203	0.54442	9.95943	0.37817
2743.000	11.25056	0.50145	10.01312	0.37027
2744.000	11.24676	0.53657	9.98628	0.45651
2745.000	11.26387	0.50338	9.92682	0.44483
2746.000	11.23535	0.56586	9.95943	0.44283
2747.000	11.25056	0.53852	9.99970	0.38400
2748.000	11.28289	0.55211	9.96710	0.35465
2749.000	11.23725	0.56000	9.89037	0.36061
2750.000	11.22964	0.53465	9.94792	0.41737
2751.000	11.26007	0.54435	9.95368	0.41149
2752.000	11.22013	0.58540	10.01121	0.47606
2753.000	11.19730	0.52105	9.91915	0.47816
2754.000	11.20111	0.54641	9.93066	0.40956
2755.000	11.22013	0.55809	9.86735	0.43903
2756.000	11.19159	0.51716	9.88078	0.38610
2757.000	11.24105	0.59902	9.91340	0.37430
2758.000	11.21823	0.54053	9.94984	0.44480
2759.000	11.19540	0.55813	9.93066	0.37624
2760.000	11.24676	0.58340	9.93450	0.42915
2761.000	11.23154	0.56197	9.93258	0.49969
2762.000	11.20872	0.56786	9.85775	0.49196
2763.000	11.25246	0.55022	9.95368	0.40953
2764.000	11.21632	0.52297	9.94984	0.39778
2765.000	11.24295	0.56585	10.07255	0.45247
2766.000	11.20872	0.55811	10.04380	0.44271
2767.000	11.24485	0.57950	9.97669	0.41538
2768.000	11.23535	0.59513	10.00162	0.39771
2769.000	11.27338	0.56969	10.00162	0.35461
2770.000	11.25627	0.51900	9.97094	0.44673
2771.000	11.22584	0.51320	9.93642	0.36056
2772.000	11.24105	0.54439	9.98244	0.43496
2773.000	11.26767	0.53849	9.90189	0.46838
2774.000	11.27908	0.53846	9.95560	0.39973
2775.000	11.24295	0.54634	10.00545	0.37616
2776.000	11.23725	0.51708	9.94409	0.34096
2777.000	11.24676	0.55218	9.97477	0.46044
2778.000	11.27338	0.56384	9.86159	0.49784
2779.000	11.22774	0.55807	9.85200	0.42729
2780.000	11.27908	0.58723	9.85391	0.46257
2781.000	11.27338	0.52482	9.97477	0.43105
2782.000	11.30570	0.57938	9.92491	0.55457
2783.000	11.26767	0.61652	9.92107	0.46835
2784.000	11.28669	0.54625	9.94025	0.45069
2785.000	11.24676	0.57755	9.90380	0.43115
2786.000	11.27148	0.52092	9.92682	0.42132
2787.000	11.26958	0.53458	9.95751	0.47614
2788.000	11.26958	0.51117	9.98628	0.48393
2789.000	11.26577	0.52093	9.90572	0.41351
2790.000	11.25627	0.50924	9.90380	0.45074
2791.000	11.29049	0.50528	9.85391	0.47041
2792.000	11.22584	0.56588	9.88654	0.49192
2793.000	11.19920	0.52105	9.87694	0.47234
2794.000	11.17066	0.56013	9.83472	0.42340
2795.000	11.04312	0.48814	9.78097	0.36661
2796.000	10.86971	0.54508	9.65805	0.35302
2797.000	10.65410	0.61585	9.58695	0.42175
2798.000	10.41141	0.64763	9.23868	0.42806
2799.000	10.07830	0.67965	9.04790	0.37721
2800.000	9.64268	0.69035	8.77776	0.34604
2801.000	9.13272	0.73065	8.36989	0.36215
2802.000	8.70630	0.84357	7.90492	0.39607
2803.000	8.21115	0.93521	7.45445	0.41227
2804.000	7.63902	0.94834	6.93877	0.50555
2805.000	7.04978	1.03447	6.52345	0.55737
2806.000	6.55467	1.07110	6.00188	0.68850
2807.000	6.08399	1.16304	5.59682	0.67315
2808.000	5.51260	1.14244	5.12256	0.77472
2809.000	5.10099	1.20857	4.57885	0.88835
2810.000	4.68688	1.25292	4.21919	0.99986
2811.000	4.34894	1.26540	3.92807	1.16688
2812.000	4.01661	1.24213	3.55995	1.20111
2813.000	3.70960	1.26044	3.34524	1.08822
2814.000	3.52844	1.34802	3.11269	1.19967
2815.000	3.37282	1.38000	2.93328	1.21973
2816.000	3.22898	1.33255	2.76171	1.31127
2817.000	3.28021	1.42181	2.80707	1.30725
2818.000	3.31371	1.40588	2.74593	1.36293
2819.000	3.41025	1.43353	2.74396	1.36095
2820.000	3.68400	1.51247	2.85046	1.38664
2821.000	3.83361	1.53998	2.99441	1.45794
2822.000	3.99300	1.52977	3.10875	1.52131
2823.000	4.19363	1.59481	3.30583	1.57659
2824.000	4.35681	1.62024	3.42010	1.53076
2825.000	4.52974	1.57626	3.54222	1.51469
2826.000	4.62796	1.59784	3.63675	1.58794
2827.000	4.74579	1.59757	3.75291	1.48854
2828.000	4.89890	1.55958	3.88281	1.46848
2829.000	4.92834	1.55357	3.97529	1.45840
2830.000	4.91068	1.51202	4.04612	1.42655
2831.000	4.90479	1.45261	4.11299	1.28760
2832.000	4.85965	1.38139	4.11693	1.19636
2833.000	4.82628	1.33985	4.05595	1.16075
2834.000	4.71241	1.33412	3.98710	1.16084
2835.000	4.62796	1.25104	3.96152	0.99621
2836.000	4.50223	1.26117	3.86116	0.98046
2837.000	4.43739	1.28706	3.72731	1.01832
2838.000	4.38432	1.28913	3.68991	1.07194
2839.000	4.25458	1.25763	3.64659	1.06803
2840.000	4.21329	1.25571	3.51662	1.20514
2841.000	4.12676	1.29353	3.44177	1.13377
2842.000	4.06185	1.30554	3.35706	1.14181
2843.000	3.99103	1.32747	3.30977	1.15378
2844.000	3.95365	1.39299	3.27036	1.26302
2845.000	3.87297	1.36733	3.17576	1.32468
2846.000	3.92020	1.44660	3.13634	1.30488
2847.000	3.87297	1.39709	3.11072	1.35852
2848.000	3.89659	1.42482	3.01609	1.34871
2849.000	3.86510	1.44273	2.90568	1.36076
2850.000	3.84148	1.41896	2.97863	1.44208
2851.000	3.88281	1.43079	2.89187	1.40644
2852.000	3.86313	1.40306	2.94314	1.45602
2853.000	3.88871	1.43277	2.92737	1.41633
2854.000	3.88281	1.36335	2.97272	1.42421
2855.000	3.88478	1.41294	2.97469	1.42024
2856.000	3.90839	1.44860	2.94117	1.45007
2857.000	3.92217	1.38312	3.01215	1.43409
2858.000	3.98316	1.43062	2.98258	1.38648
2859.000	3.93201	1.48030	3.11860	1.43395
2860.000	3.95365	1.44654	3.03581	1.37251
2861.000	3.99300	1.50994	3.07327	1.39827
2862.000	3.95955	1.48223	3.07918	1.39429
2863.000	4.00874	1.45239	3.14817	1.35847
2864.000	3.98710	1.46433	3.12649	1.36247
2865.000	4.00677	1.47818	3.11072	1.41410
2866.000	4.00677	1.50198	3.17774	1.38622
2867.000	4.03431	1.43053	3.15605	1.36243
2868.000	4.03038	1.47020	3.09495	1.41016
2869.000	4.04415	1.48010	3.13437	1.31481
2870.000	4.04021	1.39681	3.16788	1.38226
2871.000	4.02841	1.42459	3.07327	1.45783
2872.000	4.07956	1.50978	3.14817	1.39222
2873.000	4.06382	1.47411	3.16197	1.39617
2874.000	4.04415	1.44241	3.23686	1.42187
2875.000	4.05792	1.48007	3.16591	1.32469
2876.000	4.06775	1.43841	3.18562	1.38423
2877.000	4.07366	1.44831	3.10481	1.42205
2878.000	4.09136	1.48199	3.12452	1.34857
2879.000	4.07562	1.42054	3.08312	1.38635
2880.000	4.06185	1.43445	3.16788	1.31675
2881.000	4.06382	1.39677	3.15014	1.40611
2882.000	4.05202	1.47016	3.08312	1.41017
2883.000	4.08152	1.43640	3.08706	1.38833
2884.000	4.06185	1.44040	3.12058	1.41211
2885.000	4.07562	1.39278	3.16000	1.38823
2886.000	4.08546	1.43837	3.11663	1.38829
2887.000	4.07759	1.48598	3.18562	1.41400
2888.000	4.05989	1.40867	3.12846	1.40217
2889.000	4.07562	1.44434	3.13043	1.39621
2890.000	4.08742	1.42647	3.12649	1.40813
2891.000	4.11889	1.46013	3.18168	1.37033
2892.000	4.08546	1.47209	3.08904	1.38634
2893.000	4.08546	1.46019	3.10678	1.34859
2894.000	4.04415	1.46820	3.19547	1.29488
2895.000	4.05595	1.50387	3.16000	1.33264
2896.000	4.05595	1.46421	3.12649	1.31482
2897.000	4.07169	1.43047	3.09889	1.36250
2898.000	4.04612	1.47018	3.14029	1.28899
2899.000	4.04612	1.45233	3.17379	1.37233
2900.000	4.08939	1.46415	3.11072	1.36646
2901.000	4.08939	1.47208	3.11072	1.38631
2902.000	4.08546	1.45622	3.19350	1.34054
2903.000	4.08939	1.45820	3.10678	1.33470
2904.000	4.10316	1.44033	3.11269	1.33270
2905.000	4.07366	1.43046	3.11466	1.29895
2906.000	4.07956	1.47408	3.14817	1.35251
2907.000	4.03628	1.47019	3.10678	1.36448
2908.000	4.09726	1.45422	3.14620	1.28104
2909.000	4.05399	1.47214	3.11269	1.33072
2910.000	4.09136	1.46018	3.09298	1.30096
2911.000	4.07956	1.50184	3.14029	1.37039
2912.000	4.09529	1.49190	3.07524	1.36452
2913.000	4.06972	1.47608	3.13634	1.32870
2914.000	4.07956	1.49788	3.11466	1.34263
2915.000	4.04415	1.43250	3.04764	1.31094
2916.000	4.05202	1.41860	3.10283	1.35654
2917.000	4.10709	1.48196	3.12255	1.37835
2918.000	4.07562	1.48202	3.10481	1.34860
2919.000	4.05005	1.48405	3.03778	1.31095
2920.000	4.05989	1.47610	3.10481	1.24932
2921.000	4.08546	1.45424	3.04961	1.39632
2922.000	4.01267	1.47024	3.08509	1.35656
2923.000	4.08152	1.46614	3.12649	1.36247
2924.000	4.04218	1.46820	3.14423	1.29693
2925.000	4.03235	1.46623	3.19547	1.32466
2926.000	4.03431	1.51383	3.07721	1.37643
2927.000	4.09923	1.52560	3.13832	1.34260
2928.000	4.09726	1.47008	3.08115	1.36451
2929.000	4.10906	1.48791	3.10481	1.37639
2930.000	4.11103	1.50575	3.09101	1.31883
2931.000	4.08152	1.43838	3.15211	1.38228
2932.000	4.08546	1.43441	3.06735	1.31092
2933.000	4.07956	1.46615	3.13832	1.34061
2934.000	4.09333	1.49389	3.11466	1.35454
2935.000	4.11103	1.49187	3.08706	1.37840
2936.000	4.06382	1.48204	3.11269	1.35057
2937.000	4.09136	1.50579	3.03975	1.31889
2938.000	4.09136	1.47009	3.14423	1.33862
2939.000	4.08939	1.44630	3.14817	1.42001
2940.000	4.09136	1.54545	3.03187	1.38443
2941.000	4.07759	1.47408	3.00624	1.30702
2942.000	4.13463	1.54338	3.08115	1.36451
2943.000	4.10709	1.45817	3.08706	1.36450
2944.000	4.09333	1.50777	3.12058	1.36843
2945.000	4.08939	1.46216	3.09692	1.37045
2946.000	4.08349	1.44631	3.07918	1.37642
2947.000	4.09136	1.47604	3.13634	1.41010
2948.000	4.08152	1.49986	3.11466	1.38631
2949.000	4.01858	1.45634	3.06735	1.42607
2950.000	4.02841	1.44244	3.06538	1.36056
2951.000	4.11103	1.46411	3.11269	1.32675
2952.000	4.07956	1.47805	3.08904	1.38435
2953.000	4.06579	1.45031	3.12058	1.36446
2954.000	4.09923	1.45620	3.01807	1.37055
2955.000	4.08939	1.47010	3.14029	1.40017
2956.000	4.08546	1.49985	3.10086	1.36250
2957.000	4.09333	1.49190	3.02201	1.35863
2958.000	4.08349	1.50977	3.00032	1.37255
2959.000	4.06185	1.49593	3.05749	1.34071
2960.000	4.03825	1.49399	3.05749	1.36057
2961.000	4.06185	1.49593	3.04567	1.34668
2962.000	4.08742	1.52761	3.02792	1.34869
2963.000	4.05202	1.50190	3.06144	1.36255
2964.000	4.08546	1.51571	3.12058	1.41806
2965.000	4.10709	1.57119	3.11072	1.35454
2966.000	4.09333	1.52561	3.09298	1.39427
2967.000	4.10906	1.52558	3.03384	1.34273
2968.000	4.07562	1.53953	3.01807	1.42217
2969.000	4.11299	1.49187	3.07721	1.30694
2970.000	4.10906	1.48394	3.07129	1.37643
2971.000	4.11299	1.50178	3.04961	1.33080
2972.000	4.06775	1.50583	3.04172	1.38441
2973.000	4.04218	1.47217	3.01609	1.36261
2974.000	4.09529	1.49587	3.04764	1.41022
2975.000	4.08349	1.52365	3.03581	1.38839
2976.000	4.05202	1.49000	3.04567	1.36853
2977.000	4.09726	1.48198	3.05552	1.39234
2978.000	4.02644	1.46426	3.08312	1.38635
2979.000	4.08546	1.51968	3.13043	1.40018
2980.000	4.06382	1.49196	3.04961	1.37845
2981.000	4.04612	1.52570	3.02398	1.36458
2982.000	4.06579	1.48799	3.05749	1.31093
2983.000	4.05202	1.53957	2.99835	1.37057
2984.000	4.03235	1.49400	3.07327	1.34665
2985.000	4.05202	1.48405	3.07721	1.39430
2986.000	4.05399	1.49396	2.98455	1.39243
2987.000	4.05989	1.46817	3.05355	1.34072
2988.000	4.05399	1.50586	3.05355	1.35065
2989.000	4.04021	1.50985	3.13437	1.38032
2990.000	4.06185	1.51576	3.01412	1.37452
2991.000	4.05202	1.51974	3.03384	1.34074
2992.000	4.05202	1.48603	3.11466	1.34064
2993.000	4.07169	1.55342	2.96286	1.37061
2994.000	4.02448	1.52178	2.98652	1.45993
2995.000	4.03431	1.50986	3.07524	1.33672
2996.000	4.05989	1.54749	3.00624	1.35071
2997.000	4.03235	1.48210	3.11663	1.40417
2998.000	4.04808	1.52768	3.07327	1.29106
2999.000	4.08742	1.57520	2.94906	1.35078
3000.000	4.03628	1.51581	3.03581	1.39832
3001.000	4.06579	1.52170	2.99244	1.38448
3002.000	4.02251	1.51385	3.08312	1.40819
3003.000	4.06382	1.54550	3.01807	1.33481
3004.000	4.05005	1.51380	3.08115	1.34068
3005.000	4.05399	1.48801	3.04172	1.36655
3006.000	4.10513	1.51766	3.08706	1.33273
3007.000	4.00677	1.51189	3.05749	1.45587
3008.000	4.08349	1.51770	3.02989	1.42414
3009.000	4.08742	1.49985	3.05552	1.35660
3010.000	4.12873	1.51563	2.95695	1.43416
3011.000	4.11103	1.51368	3.09495	1.37442
3012.000	4.05005	1.47413	3.10086	1.37838
3013.000	4.08152	1.47408	3.07721	1.37841
3014.000	4.06185	1.47610	3.02201	1.37451
3015.000	4.06579	1.51575	2.92145	1.41832
3016.000	4.07562	1.50978	3.05552	1.39432
3017.000	4.08742	1.50976	3.06735	1.34666
3018.000	4.07956	1.51176	2.99046	1.31300
3019.000	4.06382	1.52567	2.98849	1.35073
3020.000	4.10316	1.48594	3.08312	1.28112
3021.000	4.07956	1.49589	3.01215	1.33084
3022.000	4.04612	1.48604	3.11072	1.31285
3023.000	4.05202	1.52768	3.17774	1.39019
3024.000	4.05399	1.50784	3.10086	1.35257
3025.000	4.05989	1.52766	3.13043	1.38628
3026.000	4.10513	1.57120	3.06538	1.33872
3027.000	4.08742	1.53951	3.02201	1.39238
3028.000	4.08742	1.54149	3.06341	1.30695
3029.000	4.12676	1.46408	3.08904	1.30891
3030.000	4.10119	1.53750	3.09101	1.26721
3031.000	4.10316	1.52956	3.01018	1.36261
3032.000	4.12480	1.52357	3.11269	1.28307
3033.000	4.07759	1.51375	3.02989	1.25139
3034.000	4.07366	1.54350	3.09495	1.30096
3035.000	4.11299	1.49583	3.03975	1.27124
3036.000	4.08939	1.51769	3.09692	1.35258
3037.000	4.07169	1.51376	3.01609	1.28517
3038.000	4.07956	1.57323	3.05355	1.25137
3039.000	4.06579	1.54351	3.07327	1.28708
3040.000	4.11299	1.52756	3.07327	1.28311
3041.000	4.06579	1.50980	3.08312	1.29700
3042.000	4.08939	1.50777	3.07918	1.21162
3043.000	4.12480	1.53547	3.03975	1.29308
3044.000	4.15823	1.49971	3.05552	1.26924
3045.000	4.10119	1.51370	3.03581	1.26529
3046.000	4.13463	1.49579	3.08509	1.27913
3047.000	4.12873	1.49382	3.05158	1.30895
3048.000	4.12873	1.53943	3.08706	1.29104
3049.000	4.14840	1.54732	3.07327	1.28510
3050.000	4.12480	1.56323	3.05355	1.37249
3051.000	4.11889	1.52755	3.12649	1.25327
3052.000	4.07956	1.53555	3.08509	1.30494
3053.000	4.12086	1.54936	3.09298	1.33074
3054.000	4.11496	1.50574	3.05749	1.31689
3055.000	4.11693	1.55531	3.07918	1.32679
3056.000	4.15823	1.57704	3.15211	1.31081
3057.000	4.11103	1.52756	3.11072	1.21159
3058.000	4.10513	1.53947	3.09298	1.28706
3059.000	4.09529	1.50181	3.10678	1.28109
3060.000	4.07956	1.55142	3.09889	1.21160
3061.000	4.09726	1.54940	2.97469	1.30309
3062.000	4.08742	1.55339	3.01018	1.19979
3063.000	4.15036	1.51757	2.98849	1.25343
3064.000	4.11103	1.50972	3.10678	1.32675
3065.000	4.10906	1.52757	3.15408	1.28103
3066.000	4.13266	1.53545	3.07129	1.23546
3067.000	4.09333	1.53949	3.03581	1.26330
3068.000	4.11889	1.54341	3.11860	1.27710
3069.000	4.10513	1.53947	3.06144	1.26129
3070.000	4.14250	1.52949	3.02201	1.23750
3071.000	4.08742	1.53157	3.04764	1.24343
3072.000	4.08349	1.58115	3.03975	1.23748
3073.000	4.10906	1.53946	3.05947	1.26923
3074.000	4.10906	1.54343	3.09692	1.22352
3075.000	4.11889	1.58108	3.02201	1.21765
3076.000	4.18773	1.57896	3.13634	1.19766
3077.000	4.17789	1.58493	3.08904	1.29699
3078.000	4.13856	1.54734	3.01018	1.25936
3079.000	4.12676	1.57115	3.08115	1.27516
3080.000	4.16413	1.57703	3.04961	1.25336
3081.000	4.12480	1.54538	3.04961	1.30895
3082.000	4.16216	1.51755	3.04369	1.33279
3083.000	4.10316	1.55137	3.01609	1.29907
3084.000	4.07366	1.59505	3.07721	1.20765
3085.000	3.99497	1.55356	3.04172	1.20968
3086.000	3.94971	1.52985	2.96286	1.25743
3087.000	3.81393	1.46662	2.94709	1.25546
3088.000	3.73125	1.46279	2.78341	1.19407
3089.000	3.64462	1.39349	2.62560	1.18628
3090.000	3.50480	1.34210	2.56049	1.17641
3091.000	3.34327	1.30858	2.41447	1.09309
3092.000	3.22898	1.23726	2.24078	1.03360
3093.000	3.07918	1.22552	2.19932	1.00581
3094.000	2.97666	1.13826	2.14800	1.01976
3095.000	2.88004	1.10459	2.07297	1.05359
3096.000	2.85441	1.10660	1.94067	0.90261
3097.000	2.76565	1.06696	1.93080	1.01592
3098.000	2.81891	0.98746	2.01571	0.92642
3099.000	2.84454	1.03511	1.96042	0.94633
3100.000	2.88596	1.02117	1.99991	0.97414
3101.000	2.93920	1.02310	2.13615	0.94424
3102.000	2.99835	0.95751	2.15984	1.04757
3103.000	3.13043	1.06860	2.18748	1.07736
3104.000	3.15408	1.02290	2.27828	1.03556
3105.000	3.25065	1.05060	2.36908	1.04941
3106.000	3.32553	1.07633	2.35921	1.09909
3107.000	3.36297	1.09813	2.51313	1.07711
3108.000	3.44768	1.10399	2.46380	1.06324
3109.000	3.44571	1.10796	2.51708	1.14068
3110.000	3.46935	1.15557	2.55260	1.10887
3111.000	3.43783	1.15363	2.52497	1.06915
3112.000	3.40237	1.16955	2.51313	1.01552
3113.000	3.41025	1.15167	2.39473	1.08317
3114.000	3.42798	1.20128	2.38684	1.10304
3115.000	3.33736	1.16566	2.39868	1.00170
3116.000	3.33538	1.21331	2.46775	1.07119
3117.000	3.29795	1.20740	2.31579	1.08124
3118.000	3.23686	1.17967	2.33355	1.08719
3119.000	3.31371	1.26098	2.42828	1.13083
3120.000	3.22701	1.20550	2.34934	1.07128
3121.000	3.27824	1.18558	2.42828	1.07519
3122.000	3.29204	1.19748	2.33355	1.08321
3123.000	3.27627	1.18360	2.36513	1.16068
3124.000	3.28021	1.18161	2.29210	1.12895
3125.000	3.23883	1.22534	2.40460	1.07521
3126.000	3.27627	1.17566	2.33947	1.06930
3127.000	3.25065	1.11811	2.35723	1.05339
3128.000	3.23686	1.14592	2.26052	1.06539
3129.000	3.22898	1.14593	2.31579	1.07329
3130.000	3.24671	1.17966	2.38289	1.08119
3131.000	3.29007	1.13395	2.25460	1.01968
3132.000	3.19941	1.13604	2.30592	1.02958
3133.000	3.24474	1.14790	2.28223	1.04748
3134.000	3.23883	1.12011	2.22301	1.03560
3135.000	3.25460	1.18164	2.30394	1.04349
3136.000	3.21321	1.14793	2.32565	0.99579
3137.000	3.24474	1.13201	2.27039	1.00775
3138.000	3.24868	1.15981	2.33750	1.11500
3139.000	3.20730	1.12213	2.30592	1.03753
3140.000	3.26051	1.15384	2.26249	1.03558
3141.000	3.24868	1.15186	2.20919	1.07337
3142.000	3.21715	1.13800	2.31776	1.02759
3143.000	3.19941	1.13405	2.32171	1.05540
3144.000	3.20927	1.05462	2.28223	1.00973
3145.000	3.21912	1.05460	2.30197	1.02362
3146.000	3.21124	1.11220	2.37105	1.02357
3147.000	3.22701	1.06651	2.34342	0.99577
3148.000	3.18956	1.07648	2.29605	0.96997
3149.000	3.25263	1.06450	2.30592	1.03554
3150.000	3.21518	1.05461	2.22696	0.99585
3151.000	3.28810	1.12601	2.21906	1.07336
3152.000	3.20927	1.08837	2.37697	1.00966
3153.000	3.24474	1.10422	2.40855	1.00169
3154.000	3.24868	1.07840	2.31184	1.00176
3155.000	3.23095	1.09430	2.30986	1.03157
3156.000	3.25657	1.09428	2.26644	1.04750
3157.000	3.19547	1.08243	2.36908	1.00569
3158.000	3.18168	1.14003	2.27433	0.97198
3159.000	3.23883	1.14393	2.30000	1.00574
3160.000	3.23883	1.10422	2.28618	0.94812
3161.000	3.19941	1.08242	2.32565	0.98784
3162.000	3.24080	1.11415	2.20919	0.96606
3163.000	3.21912	1.10226	2.32368	0.99778
3164.000	3.23489	1.10423	2.24275	1.05348
3165.000	3.25460	1.10024	2.27631	0.97992
3166.000	3.27627	1.12404	2.35329	0.98583
3167.000	3.28218	1.07439	2.32565	0.97194
3168.000	3.28218	1.13396	2.22696	0.96604
3169.000	3.23292	1.11416	2.23091	1.00579
3170.000	3.23095	1.08041	2.28223	1.00774
3171.000	3.24868	1.07244	2.28618	1.00178
3172.000	3.19350	1.12016	2.24473	1.00975
3173.000	3.26445	1.10817	2.28618	0.93222
3174.000	3.20730	1.06057	2.29802	0.95606
3175.000	3.23095	1.12806	2.21906	0.98592
3176.000	3.22898	1.07644	2.22696	0.99188
3177.000	3.23489	1.06650	2.28223	0.99184
3178.000	3.25263	1.09031	2.33552	0.94809
3179.000	3.24080	1.12011	2.27828	1.00178
3180.000	3.24671	1.08635	2.26841	0.97595
3181.000	3.20730	1.07050	2.22499	0.94021
3182.000	3.23883	1.06253	2.27236	0.97595
3183.000	3.22504	1.11615	2.29013	0.93222
3184.000	3.20533	1.09830	2.30197	0.96997
3185.000	3.24080	1.04465	2.20919	0.98593
3186.000	3.25460	1.06052	2.30986	0.96996
3187.000	3.25657	1.09626	2.35329	1.02756
3188.000	3.21321	1.05660	2.25657	0.97596
3189.000	3.21518	1.06057	2.25657	1.02962
3190.000	3.22898	1.06849	2.27039	1.00775
3191.000	3.23686	1.08437	2.32565	0.98982
3192.000	3.24474	1.11414	2.31381	0.99579
3193.000	3.23686	1.10423	2.19932	1.00382
3194.000	3.23686	1.05459	2.31381	0.96599
3195.000	3.24868	1.08436	2.30789	1.00971
3196.000	3.24868	1.07840	2.36315	0.97390
3197.000	3.26839	1.09823	2.21906	1.05747
3198.000	3.22701	1.11019	2.29210	1.02164
3199.000	3.21124	1.07645	2.34144	0.98584
3200.000	3.30583	1.08628	2.28223	1.02563
3201.000	3.22306	1.11814	2.31776	0.95605
3202.000	3.23095	1.10622	2.28815	0.93619
3203.000	3.23883	1.13401	2.27828	1.01967
3204.000	3.19547	1.08441	2.31381	0.99182
3205.000	3.22109	1.08042	2.27433	0.98589
3206.000	3.22898	1.11416	2.26052	0.97993
3207.000	3.18956	1.11818	2.31973	0.91034
3208.000	3.23095	1.10423	2.24078	0.95809
3209.000	3.22898	1.07445	2.32368	0.95207
3210.000	3.24671	1.10223	2.32763	1.00572
3211.000	3.21124	1.06653	2.26841	1.00378
3212.000	3.18562	1.07847	2.31184	0.97195
3213.000	3.22504	1.09630	2.25657	0.96205
3214.000	3.17379	1.08047	2.25854	1.00180
3215.000	3.21912	1.09233	2.32171	1.00374
3216.000	3.20336	1.09830	2.27828	1.02762
3217.000	3.22701	1.07048	2.22499	0.97002
3218.000	3.20533	1.07646	2.21314	1.02170
3219.000	3.21518	1.06851	2.35921	0.99179
3220.000	3.19547	1.07051	2.30592	0.92028
3221.000	3.19153	1.07648	2.23683	1.03559
3222.000	3.18759	1.06854	2.29210	0.89644
3223.000	3.13240	0.99710	2.29210	0.92824
3224.000	3.20336	1.01292	2.23486	0.90642
3225.000	3.20139	1.07448	2.27631	0.96999
3226.000	3.19744	1.05661	2.28815	0.92030
3227.000	3.22701	1.10622	2.27631	0.90242
3228.000	3.23095	1.11813	2.26249	0.90243
3229.000	3.24868	1.11414	2.24473	0.82890
3230.000	3.24277	1.10819	2.36513	0.94807
3231.000	3.22898	1.08835	2.30986	0.84079
3232.000	3.22701	1.10225	2.36908	0.91627
3233.000	3.25263	1.12406	2.30394	0.92625
3234.000	3.19350	1.05860	2.31776	0.91829
3235.000	3.27627	1.13793	2.33158	0.89841
3236.000	3.23686	1.10025	2.28420	0.90837
3237.000	3.23489	1.08437	2.30789	0.86861
3238.000	3.20139	1.09632	2.30789	0.90637
3239.000	3.23095	1.12012	2.28618	0.88254
3240.000	3.22109	1.11616	2.27433	0.81696
3241.000	3.19547	1.10427	2.26841	0.91037
3242.000	3.23095	1.12806	2.29407	0.94414
3243.000	3.22109	1.16182	2.38092	0.80497
3244.000	3.19547	1.10030	2.25854	0.90442
3245.000	3.19153	1.10427	2.29210	0.88850
3246.000	3.22306	1.12410	2.30986	0.89842
3247.000	3.18562	1.08641	2.22893	0.89450
3248.000	3.25657	1.10222	2.32171	0.82091
3249.000	3.19153	1.10030	2.41644	0.84271
3250.000	3.22306	1.06254	2.30000	0.83483
3251.000	3.17182	1.06061	2.33552	0.83282
3252.000	3.23292	1.11019	2.30592	0.86663
3253.000	3.19153	1.04073	2.35526	0.84672
3254.000	3.19941	1.02087	2.32960	0.84475
3255.000	3.20927	1.04667	2.31184	0.88053
3256.000	3.20730	1.04072	2.31184	0.84277
3257.000	3.23489	1.05856	2.28223	0.90241
3258.000	3.22701	1.05063	2.27433	0.95608
3259.000	3.21715	1.04865	2.37500	0.92421
3260.000	3.15605	0.99708	2.33158	0.99578
3261.000	3.20730	1.04866	2.27039	0.87658
3262.000	3.18759	1.04868	2.31184	0.86861
3263.000	3.22306	1.08240	2.28815	0.86067
3264.000	3.19547	1.04272	2.34144	0.91629
3265.000	3.19350	1.06257	2.37105	0.91229
3266.000	3.20730	1.08043	2.29605	0.96401
3267.000	3.18562	1.08244	2.29605	0.89446
3268.000	3.22306	1.04666	2.32565	0.86860
3269.000	3.22109	1.09630	2.28815	0.90837
3270.000	3.21321	1.06454	2.29407	0.91632
3271.000	3.15605	1.07850	2.39276	0.90234
3272.000	3.16394	1.10828	2.36513	0.95602
3273.000	3.17379	1.08642	2.34144	0.86859
3274.000	3.17971	1.11422	2.36513	0.93813
3275.000	3.17576	1.08245	2.33158	0.91828
3276.000	3.22898	1.12409	2.40065	0.93413
3277.000	3.18168	1.10627	2.38684	0.97985
3278.000	3.13634	1.08646	2.38289	0.96395
3279.000	3.15014	1.10233	2.39276	0.99375
3280.000	3.17774	1.07053	2.48551	0.93805
3281.000	3.13832	1.09440	2.42631	0.96591
3282.000	3.17182	1.07054	2.37894	1.02556
3283.000	3.16591	1.09437	2.36513	1.01762
3284.000	3.16591	1.05665	2.38684	0.96991
3285.000	3.18562	1.09634	2.38092	0.93017
3286.000	3.20533	1.06653	2.40065	1.00567
3287.000	3.22701	1.13203	2.40263	0.89439
3288.000	3.17774	1.08443	2.43618	0.97186
3289.000	3.19744	1.08243	2.36513	0.90037
3290.000	3.21715	1.07645	2.32368	0.91630
3291.000	3.15408	1.05070	2.31381	0.92823
3292.000	3.17379	1.07252	2.37894	0.93017
3293.000	3.20336	1.10029	2.30197	0.94413
3294.000	3.22306	1.04269	2.34539	0.98385
3295.000	3.17576	1.07649	2.34934	1.08718
3296.000	3.12452	1.07853	2.37894	1.08318
3297.000	3.01215	0.99324	2.26644	1.10711
3298.000	2.87018	0.96755	2.14800	1.05553
3299.000	2.71634	0.94582	2.12233	0.98002
3300.000	2.51511	0.90425	1.96832	0.94036
3301.000	2.34539	0.90436	1.84391	0.82712
3302.000	2.16774	0.82099	1.74120	0.80927
3303.000	1.95055	0.72568	1.55552	0.72385
3304.000	1.79058	0.59254	1.44093	0.64832
3305.000	1.62071	0.54089	1.22160	0.67225
3306.000	1.50810	0.48524	1.14848	0.55691
3307.000	1.37771	0.34208	1.09513	0.47936
3308.000	1.24729	0.16111	1.03386	0.41373
3309.000	1.22555	0.04972	1.00817	0.34213
3310.000	1.17022	-0.04575	0.97654	0.36003
3311.000	1.17022	-0.14719	1.06351	0.35207
3312.000	1.21963	-0.14718	0.99236	0.39384
3313.000	1.22753	-0.27846	1.15046	0.38786
3314.000	1.24532	-0.56286	1.38956	0.07955
3315.000	1.19196	-0.70010	NaN	NaN
3316.000	1.18208	-0.55890	NaN	NaN
3317.000	1.14058	-0.27449	NaN	NaN
3318.000	1.06548	0.02984	NaN	NaN
3319.000	0.96271	0.46545	NaN	NaN
3320.000	0.80656	0.97066	NaN	NaN
3321.000	0.74331	1.50553	NaN	NaN
3322.000	0.68006	1.98254	NaN	NaN
3323.000	0.57529	2.58637	NaN	NaN
3324.000	NaN	NaN	NaN	NaN
3325.000	NaN	NaN	NaN	NaN
3326.000	NaN	NaN	NaN	NaN
3327.000	NaN	NaN	NaN	NaN
3328.000	NaN	NaN	NaN	NaN
3329.000	NaN	NaN	NaN	NaN
3330.000	NaN	NaN	NaN	NaN
3331.000	NaN	NaN	NaN	NaN
3332.000	NaN	NaN	NaN	NaN
3333.000	NaN	NaN	NaN	NaN
3334.000	NaN	NaN	NaN	NaN
3335.000	NaN	NaN	NaN	NaN
3336.000	NaN	NaN	NaN	NaN
3337.000	NaN	NaN	NaN	NaN
3338.000	NaN	NaN	NaN	NaN
3339.000	NaN	NaN	NaN	NaN
3340.000	NaN	NaN	NaN	NaN
3341.000	NaN	NaN	NaN	NaN
3342.000	NaN	NaN	NaN	NaN
3343.000	NaN	NaN	NaN	NaN
3344.000	NaN	NaN	NaN	NaN
3345.000	NaN	NaN	NaN	NaN
3346.000	NaN	NaN	NaN	NaN
3347.000	NaN	NaN	NaN	NaN
3348.000	NaN	NaN	NaN	NaN
3349.000	NaN	NaN	NaN	NaN
3350.000	NaN	NaN	NaN	NaN
3351.000	NaN	NaN	NaN	NaN
3352.000	NaN	NaN	NaN	NaN
3353.000	NaN	NaN	NaN	NaN
3354.000	NaN	NaN	NaN	NaN
3355.000	NaN	NaN	NaN	NaN
3356.000	NaN	NaN	NaN	NaN
3357.000	NaN	NaN	NaN	NaN
3358.000	NaN	NaN	NaN	NaN
3359.000	NaN	NaN	NaN	NaN
3360.000	NaN	NaN	NaN	NaN
3361.000	NaN	NaN	NaN	NaN
3362.000	NaN	NaN	NaN	NaN
3363.000	NaN	NaN	NaN	NaN
3364.000	NaN	NaN	NaN	NaN
3365.000	NaN	NaN	NaN	NaN
3366.000	NaN	NaN	NaN	NaN
3367.000	NaN	NaN	NaN	NaN
3368.000	NaN	NaN	NaN	NaN
3369.000	NaN	NaN	NaN	NaN
3370.000	NaN	NaN	NaN	NaN
3371.000	NaN	NaN	NaN	NaN
3372.000	NaN	NaN	NaN	NaN
3373.000	NaN	NaN	NaN	NaN
3374.000	NaN	NaN	NaN	NaN
3375.000	NaN	NaN	NaN	NaN
3376.000	NaN	NaN	NaN	NaN
3377.000	NaN	NaN	NaN	NaN
3378.000	NaN	NaN	NaN	NaN
3379.000	NaN	NaN	NaN	NaN
3380.000	NaN	NaN	NaN	NaN
3381.000	NaN	NaN	NaN	NaN
3382.000	NaN	NaN	NaN	NaN
3383.000	NaN	NaN	NaN	NaN
3384.000	NaN	NaN	NaN	NaN
3385.000	NaN	NaN	NaN	NaN
3386.000	NaN	NaN	NaN	NaN
3387.000	NaN	NaN	NaN	NaN
3388.000	NaN	NaN	NaN	NaN
3389.000	NaN	NaN	NaN	NaN
3390.000	NaN	NaN	NaN	NaN
3391.000	NaN	NaN	NaN	NaN
3392.000	NaN	NaN	NaN	NaN
3393.000	NaN	NaN	NaN	NaN
3394.000	NaN	NaN	NaN	NaN
3395.000	NaN	NaN	NaN	NaN
3396.000	NaN	NaN	NaN	NaN
3397.000	NaN	NaN	NaN	NaN
3398.000	NaN	NaN	NaN	NaN
3399.000	NaN	NaN	NaN	NaN
3400.000	NaN	NaN	NaN	NaN
3401.000	NaN	NaN	NaN	NaN
3402.000	NaN	NaN	NaN	NaN
3403.000	NaN	NaN	NaN	NaN
3404.000	NaN	NaN	NaN	NaN
3405.000	NaN	NaN	NaN	NaN
3406.000	NaN	NaN	NaN	NaN
3407.000	NaN	NaN	NaN	NaN
3408.000	NaN	NaN	NaN	NaN
3409.000	NaN	NaN	NaN	NaN
3410.000	NaN	NaN	NaN	NaN
3411.000	NaN	NaN	NaN	NaN
3412.000	NaN	NaN	NaN	NaN
3413.000	NaN	NaN	NaN	NaN
3414.000	NaN	NaN	NaN	NaN
3415.000	NaN	NaN	NaN	NaN
3416.000	NaN	NaN	NaN	NaN
3417.000	NaN	NaN	NaN	NaN
3418.000	NaN	NaN	NaN	NaN
3419.000	NaN	NaN	NaN	NaN
3420.000	NaN	NaN	NaN	NaN
3421.000	NaN	NaN	NaN	NaN
3422.000	NaN	NaN	NaN	NaN
3423.000	NaN	NaN	NaN	NaN
3424.000	NaN	NaN	NaN	NaN
3425.000	NaN	NaN	NaN	NaN
3426.000	NaN	NaN	NaN	NaN
3427.000	NaN	NaN	NaN	NaN
3428.000	NaN	NaN	NaN	NaN
3429.000	NaN	NaN	NaN	NaN
3430.000	NaN	NaN	NaN	NaN
3431.000	NaN	NaN	NaN	NaN
3432.000	NaN	NaN	NaN	NaN
3433.000	NaN	NaN	NaN	NaN
3434.000	NaN	NaN	NaN	NaN
3435.000	NaN	NaN	NaN	NaN
3436.000	NaN	NaN	NaN	NaN
3437.000	NaN	NaN	NaN	NaN
3438.000	NaN	NaN	NaN	NaN
3439.000	NaN	NaN	NaN	NaN
3440.000	NaN	NaN	NaN	NaN
3441.000	NaN	NaN	NaN	NaN
3442.000	NaN	NaN	NaN	NaN
3443.000	NaN	NaN	NaN	NaN
3444.000	NaN	NaN	NaN	NaN
3445.000	NaN	NaN	NaN	NaN
3446.000	NaN	NaN	NaN	NaN
3447.000	NaN	NaN	NaN	NaN
3448.000	NaN	NaN	NaN	NaN
3449.000	NaN	NaN	NaN	NaN
3450.000	NaN	NaN	NaN	NaN
3451.000	NaN	NaN	NaN	NaN
3452.000	NaN	NaN	NaN	NaN
3453.000	NaN	NaN	NaN	NaN
3454.000	NaN	NaN	NaN	NaN
3455.000	NaN	NaN	NaN	NaN
3456.000	NaN	NaN	NaN	NaN
3457.000	NaN	NaN	NaN	NaN
3458.000	NaN	NaN	NaN	NaN
3459.000	NaN	NaN	NaN	NaN
3460.000	NaN	NaN	NaN	NaN
3461.000	NaN	NaN	NaN	NaN
3462.000	NaN	NaN	NaN	NaN
3463.000	NaN	NaN	NaN	NaN
3464.000	NaN	NaN	NaN	NaN
3465.000	NaN	NaN	NaN	NaN
3466.000	NaN	NaN	NaN	NaN
3467.000	NaN	NaN	NaN	NaN
3468.000	NaN	NaN	NaN	NaN
3469.000	NaN	NaN	NaN	NaN
3470.000	NaN	NaN	NaN	NaN
3471.000	NaN	NaN	NaN	NaN
3472.000	NaN	NaN	NaN	NaN
3473.000	NaN	NaN	NaN	NaN
3474.000	NaN	NaN	NaN	NaN
3475.000	NaN	NaN	NaN	NaN
3476.000	NaN	NaN	NaN	NaN
3477.000	NaN	NaN	NaN	NaN
3478.000	NaN	NaN	NaN	NaN
3479.000	NaN	NaN	NaN	NaN
3480.000	NaN	NaN	NaN	NaN
3481.000	NaN	NaN	NaN	NaN
3482.000	NaN	NaN	NaN	NaN
3483.000	NaN	NaN	NaN	NaN
3484.000	NaN	NaN	NaN	NaN
3485.000	NaN	NaN	NaN	NaN
3486.000	NaN	NaN	NaN	NaN
3487.000	NaN	NaN	NaN	NaN
3488.000	NaN	NaN	NaN	NaN
3489.000	NaN	NaN	NaN	NaN
3490.000	NaN	NaN	NaN	NaN
3491.000	NaN	NaN	NaN	NaN
3492.000	NaN	NaN	NaN	NaN
3493.000	NaN	NaN	NaN	NaN
3494.000	NaN	NaN	NaN	NaN
3495.000	NaN	NaN	NaN	NaN
3496.000	NaN	NaN	NaN	NaN
3497.000	NaN	NaN	NaN	NaN
3498.000	NaN	NaN	NaN	NaN
3499.000	NaN	NaN	NaN	NaN
3500.000	NaN	NaN	NaN	NaN
3501.000	-2.20525	-1.36746	NaN	NaN
3502.000	-1.23148	-0.67622	NaN	NaN
3503.000	-0.91725	-0.73993	NaN	NaN
3504.000	-0.73540	-0.78174	NaN	NaN
3505.000	-0.76110	-0.91498	NaN	NaN
3506.000	-0.63262	-0.95478	NaN	NaN
3507.000	-0.58517	-1.07014	NaN	NaN
3508.000	-0.57924	-1.18150	NaN	NaN
3509.000	-0.51401	-1.24116	NaN	NaN
3510.000	-0.47645	-1.33661	NaN	NaN
3511.000	-0.46459	-1.43205	NaN	NaN
3512.000	-0.45272	-1.55928	NaN	NaN
3513.000	-0.44284	-1.59706	NaN	NaN
3514.000	-0.37563	-1.62887	NaN	NaN
3515.000	-0.34795	-1.68652	NaN	NaN
3516.000	-0.35388	-1.70242	28.72022	-3.41728
3517.000	-0.30446	-1.70840	15.54005	-3.29502
3518.000	-0.27876	-1.69647	-0.86586	-1.76586
3519.000	-0.33016	-1.73026	-1.22160	-1.88090
3520.000	-0.27480	-1.67262	-1.18406	-1.70011
3521.000	-0.22735	-1.24916	-1.11291	-1.21712
3522.000	-0.18188	-1.18553	-1.15639	-1.19921
3523.000	-0.25305	-1.11791	-1.12872	-1.11969
3524.000	-0.23131	-1.00455	-1.12082	-1.06999
3525.000	-0.22340	-0.95483	-1.07339	-1.08392
3526.000	-0.17200	-0.90511	-1.08524	-1.05211
3527.000	-0.20165	-0.85738	-1.10106	-0.96858
3528.000	-0.17398	-0.86732	-1.10698	-0.95665
3529.000	-0.18584	-0.90909	-1.10501	-0.90495
3530.000	-0.15223	-0.89318	-1.06746	-0.90297
3531.000	-0.14037	-0.92898	-1.08327	-0.90098
3532.000	-0.16211	-0.89318	-1.12477	-0.94869
3533.000	-0.15223	-0.90710	-1.05955	-0.85525
3534.000	-0.13048	-0.91904	-1.11094	-0.85324
3535.000	-0.14037	-0.91904	-1.05560	-0.89303
3536.000	-0.16804	-0.91307	-1.13465	-0.88108
3537.000	-0.17398	-0.90114	-1.10106	-0.86319
3538.000	-0.15816	-0.86732	-1.06153	-0.84530
3539.000	-0.17200	-0.86534	-1.08722	-0.88706
3540.000	-0.18386	-0.88522	-1.11489	-0.92086
3541.000	-0.17200	-0.87329	-1.03781	-0.92883
3542.000	-0.17200	-0.88324	-1.08129	-0.90098
3543.000	-0.14234	-0.83152	-1.07734	-0.92087
3544.000	-0.13444	-0.88125	-1.09315	-0.85524
3545.000	-0.18979	-0.86335	-1.09513	-0.85723
3546.000	-0.14630	-0.85141	-1.03188	-0.89901
3547.000	-0.13839	-0.85937	-1.07536	-0.87115
3548.000	-0.13641	-0.82953	-1.06153	-0.90099
3549.000	-0.14827	-0.83550	-1.06351	-0.95667
3550.000	-0.11862	-0.86932	-1.13465	-0.87909
3551.000	-0.12653	-0.83948	-1.02991	-0.93281
3552.000	-0.14432	-0.84744	-1.08722	-0.91291
3553.000	-0.12653	-0.84545	-1.02003	-0.89105
3554.000	-0.14037	-0.84545	-1.03188	-0.89503
3555.000	-0.15816	-0.87528	-1.08327	-0.88308
3556.000	-0.13246	-0.84943	-1.01805	-0.97656
3557.000	-0.13839	-0.88920	-0.99433	-0.91691
3558.000	-0.13641	-0.89517	-0.97062	-0.91095
3559.000	-0.14234	-0.86534	-1.02991	-0.91889
3560.000	-0.14037	-0.86931	-1.03386	-0.97656
3561.000	-0.18386	-0.87130	-1.07141	-0.96661
3562.000	-0.18386	-0.88324	-1.04769	-0.96264
3563.000	-0.14827	-0.85738	-1.08722	-0.97853
3564.000	-0.17398	-0.88522	-1.01607	-0.90299
3565.000	-0.12060	-0.86733	-1.00817	-0.90498
3566.000	-0.14827	-0.89119	-1.02595	-0.89105
3567.000	-0.16409	-0.88324	-1.02991	-0.92884
3568.000	-0.17595	-0.86732	-0.99631	-0.96663
3569.000	-0.14827	-0.87926	-1.00817	-0.95072
3570.000	-0.15223	-0.89119	-1.02793	-0.92287
3571.000	-0.13048	-0.85340	-1.02003	-0.85725
3572.000	-0.17991	-0.90313	-1.05362	-0.94076
3573.000	-0.14827	-0.89716	-1.02003	-0.97259
3574.000	-0.17002	-0.88324	-1.00421	-0.93481
3575.000	-0.17793	-0.95484	-1.00817	-0.92685
3576.000	-0.16409	-0.88721	-1.04374	-0.92883
3577.000	-0.19770	-0.91108	-1.06153	-0.90496
3578.000	-0.17200	-0.89915	-0.98247	-0.96663
3579.000	-0.19968	-0.93296	-1.00817	-0.91492
3580.000	-0.20956	-0.91307	-0.96864	-0.93283
3581.000	-0.17200	-0.93694	-1.08129	-0.93876
3582.000	-0.18979	-0.94688	-1.00619	-0.88907
3583.000	-0.19177	-0.89517	-1.06153	-0.91491
3584.000	-0.17793	-0.95285	-1.04769	-0.88110
3585.000	-0.21747	-0.93097	-1.07734	-0.90297
3586.000	-0.19177	-0.94489	-1.01805	-0.83736
3587.000	-0.16607	-0.89119	-1.11884	-0.83932
3588.000	-0.17595	-0.93296	-1.01014	-0.84134
3589.000	-0.15618	-0.87727	-0.99631	-0.84532
3590.000	-0.19770	-0.95086	-1.02200	-0.89702
3591.000	-0.16804	-0.95285	-1.02595	-0.85923
3592.000	-0.20165	-0.92500	-1.00224	-0.84532
3593.000	-0.16804	-0.94091	-1.01607	-0.85725
3594.000	-0.22538	-0.94091	-1.01805	-0.84333
3595.000	-0.19375	-0.94688	-0.98445	-0.85726
3596.000	-0.24910	-0.93295	-1.01014	-0.85924
3597.000	-0.22142	-0.93296	-0.98840	-0.86919
3598.000	-0.21945	-0.91705	-1.00224	-0.90299
3599.000	-0.24317	-0.90113	-1.01212	-0.83140
3600.000	-0.24515	-0.94091	-1.02003	-0.87713
3601.000	-0.24515	-0.94091	-1.00619	-0.85924
3602.000	-0.17991	-0.95683	-1.05362	-0.85724
3603.000	-0.19968	-0.93892	-0.97654	-0.86720
3604.000	-0.20956	-0.93892	-1.05955	-0.82940
3605.000	-0.17002	-0.91904	-1.03386	-0.85526
3606.000	-0.20561	-0.93495	-1.00619	-0.84333
3607.000	-0.21747	-0.93495	-1.01607	-0.90100
3608.000	-0.17595	-0.93893	-0.96469	-0.87317
3609.000	-0.12850	-0.95285	-0.97457	-0.90300
3610.000	-0.18386	-0.96279	-0.97457	-0.93681
3611.000	-0.17002	-0.93296	-0.96864	-0.87118
3612.000	-0.17793	-1.01052	-0.93109	-0.87119
3613.000	-0.17398	-0.97075	-0.92516	-0.85926
3614.000	-0.17002	-0.98069	-0.98050	-0.86919
3615.000	-0.21154	-0.99461	-0.95678	-0.83738
3616.000	-0.20561	-1.01251	-0.99631	-0.87714
3617.000	-0.15816	-0.98467	-0.90737	-0.86324
3618.000	-0.15223	-1.00655	-0.94295	-0.93284
3619.000	-0.15816	-0.98865	-0.99433	-0.90697
3620.000	-0.14630	-0.98666	-0.89749	-0.91694
3621.000	-0.22538	-0.98666	-0.94887	-0.88908
3622.000	-0.19968	-0.98666	-0.89353	-0.93683
3623.000	-0.20165	-0.97075	-0.98840	-1.00242
3624.000	-0.17398	-1.03837	-0.94295	-0.92091
3625.000	-0.17200	-1.01848	-0.89353	-0.97660
3626.000	-0.16607	-0.98865	-0.96271	-0.91493
3627.000	-0.16409	-0.97671	-0.88167	-0.91694
3628.000	-0.13444	-1.01252	-0.92911	-0.94875
3629.000	-0.18584	-1.07416	-0.93504	-0.89108
3630.000	-0.20363	-1.02047	-0.87179	-0.95871
3631.000	-0.18386	-1.05229	-0.92713	-0.97261
3632.000	-0.17002	-1.05627	-0.90539	-0.94876
3633.000	-0.22735	-0.99660	-0.87970	-0.95672
3634.000	-0.22538	-1.05030	-0.88167	-0.95672
3635.000	-0.17793	-1.01450	-0.94690	-0.93284
3636.000	-0.18584	-1.04831	-0.90539	-1.00444
3637.000	-0.14432	-1.05627	-0.90144	-0.98654
3638.000	-0.17793	-1.01052	-0.92318	-0.94676
3639.000	-0.19375	-1.06024	-0.94097	-0.98653
3640.000	-0.18781	-1.02643	-0.92318	-0.94080
3641.000	-0.18979	-1.02047	-0.91923	-0.96267
3642.000	-0.20956	-1.04035	-0.89353	-0.90501
3643.000	-0.17595	-1.06223	-0.92911	-0.90699
3644.000	-0.17595	-1.02842	-0.90144	-0.92887
3645.000	-0.19572	-1.04433	-0.90737	-0.93682
3646.000	-0.20758	-1.04433	-0.95678	-0.90499
3647.000	-0.23329	-1.07217	-0.95678	-0.93880
3648.000	-0.25503	-1.10200	-0.89551	-0.92688
3649.000	-0.25108	-1.05029	-0.92120	-0.87517
3650.000	-0.20758	-1.03439	-0.97259	-0.94476
3651.000	-0.22538	-1.03041	-0.96073	-0.89505
3652.000	-0.26887	-1.06024	-0.87772	-0.96467
3653.000	-0.20956	-1.01649	-0.91527	-0.94080
3654.000	-0.19770	-1.06223	-0.95678	-0.88511
3655.000	-0.19572	-1.06024	-0.91527	-0.90699
3656.000	-0.21154	-1.05428	-0.93504	-0.93483
3657.000	-0.20561	-1.01649	-0.83819	-0.94877
3658.000	-0.23131	-1.08808	-0.80854	-0.92094
3659.000	-0.18781	-1.06422	-0.87772	-0.89706
3660.000	-0.23329	-1.08808	-0.84412	-0.93087
3661.000	-0.22933	-1.05427	-0.94887	-0.90102
3662.000	-0.26096	-1.03836	-0.88563	-0.93285
3663.000	-0.26294	-1.11990	-0.89749	-0.95075
3664.000	-0.23526	-1.06621	-0.88958	-0.89705
3665.000	-0.26294	-1.06422	-0.93109	-0.94875
3666.000	-0.23526	-1.08013	-0.83424	-0.86127
3667.000	-0.25305	-1.09405	-0.90144	-0.92489
3668.000	-0.25899	-1.07217	-0.90934	-0.88512
3669.000	-0.28073	-1.12785	-0.85796	-0.93485
3670.000	-0.25305	-1.08013	-0.90934	-0.92091
3671.000	-0.24712	-1.07217	-0.84807	-0.90900
3672.000	-0.26294	-1.08609	-0.82633	-0.84138
3673.000	-0.25701	-1.05825	-0.89749	-0.89109
3674.000	-0.27678	-1.06421	-0.85796	-0.89507
3675.000	-0.28666	-1.08808	-0.87377	-0.88314
3676.000	-0.26096	-1.11791	-0.84412	-0.89707
3677.000	-0.31829	-1.07813	-0.90144	-0.91893
3678.000	-0.28271	-1.10399	-0.81249	-0.93486
3679.000	-0.30841	-1.10398	-0.88760	-0.97660
3680.000	-0.32225	-1.07415	-0.84610	-0.92292
3681.000	-0.29259	-1.08808	-0.88958	-0.98058
3682.000	-0.26887	-1.12785	-0.88167	-0.92689
3683.000	-0.29655	-1.06023	-0.85203	-0.96866
3684.000	-0.27480	-1.09206	-0.87772	-0.94280
3685.000	-0.28469	-1.08211	-0.84214	-0.97264
3686.000	-0.30841	-1.09802	-0.83226	-0.96468
3687.000	-0.29259	-1.07614	-0.93109	-0.94477
3688.000	-0.28666	-1.06421	-0.88365	-0.93882
3689.000	-0.27480	-1.10598	-0.85598	-0.90701
3690.000	-0.27876	-1.10399	-0.84807	-0.90104
3691.000	-0.27876	-1.10399	-0.84017	-0.93286
3692.000	-0.28864	-1.09205	-0.84412	-0.94877
3693.000	-0.27480	-1.07018	-0.81052	-0.98259
3694.000	-0.33016	-1.10398	-0.86784	-0.93485
3695.000	-0.32818	-1.14773	-0.84807	-0.94280
3696.000	-0.32225	-1.12586	-0.81249	-0.92889
3697.000	-0.31236	-1.10001	-0.88167	-0.93683
3698.000	-0.34202	-1.10398	-0.86388	-0.92689
3699.000	-0.28469	-1.12387	-0.85598	-0.94479
3700.000	-0.30446	-1.07614	-0.91330	-0.93881
3701.000	-0.34597	-1.14574	-0.84807	-1.00048
3702.000	-0.30248	-1.11791	-0.86388	-0.97462
3703.000	-0.30643	-1.10597	-0.84017	-0.99451
3704.000	-0.31039	-1.10995	-0.86981	-1.03229
3705.000	-0.31039	-1.09205	-0.85993	-0.98456
3706.000	-0.33411	-1.14972	-0.85796	-1.05218
3707.000	-0.30050	-1.10597	-0.81249	-1.02435
3708.000	-0.32620	-1.10199	-0.88958	-1.06808
3709.000	-0.29655	-1.11393	-0.84412	-1.06809
3710.000	-0.33213	-1.09404	-0.82238	-0.99452
3711.000	-0.32620	-1.11989	-0.93306	-0.96068
3712.000	-0.32620	-1.13978	-0.85005	-1.02036
3713.000	-0.29655	-1.13183	-0.94295	-1.03425
3714.000	-0.28666	-1.13581	-0.84214	-1.06411
3715.000	-0.26689	-1.12984	-0.86388	-0.99053
3716.000	-0.33016	-1.13580	-0.88563	-1.05615
3717.000	-0.30841	-1.15967	-0.85993	-1.00445
3718.000	-0.31434	-1.21137	-0.91132	-1.00841
3719.000	-0.29062	-1.13382	-0.83621	-1.02036
3720.000	-0.30643	-1.10796	-0.86981	-1.02433
3721.000	-0.26294	-1.11194	-0.84807	-1.04224
3722.000	-0.28469	-1.14774	-0.90144	-1.06211
3723.000	-0.27282	-1.10598	-0.86981	-1.05217
3724.000	-0.28073	-1.18353	-0.90342	-1.06211
3725.000	-0.26294	-1.17558	-0.91923	-1.08994
3726.000	-0.28666	-1.15171	-0.85005	-1.04224
3727.000	-0.29655	-1.16762	-0.95876	-1.04618
3728.000	-0.26887	-1.18751	-0.83226	-1.09593
3729.000	-0.23922	-1.14774	-0.86388	-1.03428
3730.000	-0.28271	-1.17955	-0.86586	-1.03627
3731.000	-0.29259	-1.12188	-0.87970	-1.04620
3732.000	-0.24712	-1.17558	-0.83819	-1.02036
3733.000	-0.26294	-1.19348	-0.86981	-1.05416
3734.000	-0.27282	-1.16166	-0.83819	-1.08002
3735.000	-0.26096	-1.20143	-0.93109	-1.07403
3736.000	-0.25899	-1.17359	-0.86191	-1.04223
3737.000	-0.28073	-1.21734	-0.89353	-1.02830
3738.000	-0.26492	-1.20740	-0.86784	-1.05217
3739.000	-0.26689	-1.20342	-0.89353	-1.00643
3740.000	-0.22933	-1.20740	-0.86784	-1.02632
3741.000	-0.25899	-1.19547	-0.82831	-0.98855
3742.000	-0.24317	-1.19547	-0.88167	-1.05615
3743.000	-0.25305	-1.16166	-0.83424	-1.06212
3744.000	-0.25701	-1.18353	-0.82040	-1.07406
3745.000	-0.27480	-1.23325	-0.86784	-1.01638
3746.000	-0.25503	-1.18950	-0.80656	-1.04821
3747.000	-0.27876	-1.21734	-0.88167	-1.04422
3748.000	-0.26096	-1.16564	-0.87377	-1.05615
3749.000	-0.27480	-1.21933	-0.84412	-1.04621
3750.000	-0.24119	-1.18950	-0.85598	-1.06212
3751.000	-0.26294	-1.18950	-0.86388	-0.99451
3752.000	-0.23922	-1.22331	-0.89156	-1.04024
3753.000	-0.28073	-1.24915	-0.79075	-1.03827
3754.000	-0.24317	-1.24120	-0.84610	-1.03229
3755.000	-0.25503	-1.27699	-0.79866	-1.05816
3756.000	-0.23329	-1.25313	-0.84412	-1.03428
3757.000	-0.27085	-1.27103	-0.81645	-0.97662
3758.000	-0.23329	-1.24916	-0.87377	-1.03825
3759.000	-0.22142	-1.24916	-0.84412	-1.04025
3760.000	-0.21549	-1.23524	-0.86388	-1.03229
3761.000	-0.25503	-1.24717	-0.79668	-1.01043
3762.000	-0.23131	-1.25115	-0.84412	-1.02832
3763.000	-0.23724	-1.21535	-0.85203	-1.00644
3764.000	-0.26096	-1.20740	-0.78482	-1.02038
3765.000	-0.22538	-1.25711	-0.82831	-1.00843
3766.000	-0.23724	-1.24916	-0.84610	-0.93684
3767.000	-0.22933	-1.18751	-0.84807	-0.98059
3768.000	-0.20956	-1.20740	-0.86981	-0.99848
3769.000	-0.22340	-1.24916	-0.88167	-1.00246
3770.000	-0.23131	-1.22132	-0.80063	-1.00446
3771.000	-0.26294	-1.22927	-0.85598	-0.94678
3772.000	-0.20758	-1.18155	-0.84214	-0.95872
3773.000	-0.19375	-1.24518	-0.84017	-0.91695
3774.000	-0.20165	-1.20541	-0.79273	-0.90503
3775.000	-0.23131	-1.15769	-0.82040	-0.91497
3776.000	-0.19968	-1.19547	-0.83226	-0.96667
3777.000	-0.20561	-1.14178	-0.79668	-0.88117
3778.000	-0.22340	-1.18950	-0.84017	-0.95673
3779.000	-0.21549	-1.18752	-0.85993	-0.89507
3780.000	-0.24119	-1.16365	-0.87574	-0.91893
3781.000	-0.25503	-1.17956	-0.83226	-0.93883
3782.000	-0.21945	-1.18751	-0.83226	-0.95673
3783.000	-0.22142	-1.17757	-0.92318	-0.91296
3784.000	-0.23922	-1.15768	-0.86191	-0.94479
3785.000	-0.20956	-1.20740	-0.90539	-0.94080
3786.000	-0.25503	-1.15569	-0.91330	-0.90301
3787.000	-0.24515	-1.23126	-0.92120	-0.90102
3788.000	-0.24119	-1.20143	-0.86784	-0.88513
3789.000	-0.23131	-1.17359	-0.91923	-0.96864
3790.000	-0.19770	-1.18951	-0.89156	-0.89705
3791.000	-0.23329	-1.21933	-0.86586	-0.90700
3792.000	-0.19770	-1.17161	-0.87574	-0.93087
3793.000	-0.25305	-1.19547	-0.92318	-0.97261
3794.000	-0.20956	-1.16763	-0.87970	-0.87319
3795.000	-0.24910	-1.21535	-0.91132	-0.93285
3796.000	-0.26887	-1.16762	-0.83621	-0.92889
3797.000	-0.25108	-1.17558	-0.79668	-0.88117
3798.000	-0.24910	-1.17558	-0.78087	-0.94282
3799.000	-0.24712	-1.20143	-0.83621	-0.91695
3800.000	-0.26689	-1.16961	-0.88167	-0.92689
3801.000	-0.23922	-1.15570	-0.85400	-0.92491
3802.000	-0.29062	-1.20938	-0.85796	-0.89905
3803.000	-0.22142	-1.18553	-0.85993	-0.85132
3804.000	-0.23922	-1.20342	-0.87574	-0.86723
3805.000	-0.25899	-1.19745	-0.88365	-0.98058
3806.000	-0.27085	-1.20740	-0.88365	-0.89507
3807.000	-0.25305	-1.18950	-0.85796	-0.93684
3808.000	-0.26294	-1.17956	-0.88365	-0.91098
3809.000	-0.22340	-1.19746	-0.85005	-0.92292
3810.000	-0.27480	-1.21933	-0.86191	-0.90899
3811.000	-0.30446	-1.16563	-0.84017	-0.84138
3812.000	-0.27480	-1.18751	-0.87772	-0.89308
3813.000	-0.26887	-1.16961	-0.85796	-0.90899
3814.000	-0.29655	-1.20540	-0.85203	-0.89905
3815.000	-0.30643	-1.18751	-0.84412	-0.95474
3816.000	-0.28073	-1.17160	-0.90934	-0.91495
3817.000	-0.27678	-1.21933	-0.88563	-0.89308
3818.000	-0.24712	-1.19348	-0.85598	-0.87916
3819.000	-0.28666	-1.22927	-0.89156	-0.91495
3820.000	-0.25503	-1.15172	-0.89946	-0.85131
3821.000	-0.25108	-1.20143	-0.84807	-0.90701
3822.000	-0.21352	-1.16763	-0.84412	-0.87917
3823.000	-0.24515	-1.16564	-0.85203	-0.85729
3824.000	-0.22538	-1.18751	-0.90737	-0.84932
3825.000	-0.19572	-1.15172	-0.79668	-0.92094
3826.000	-0.21945	-1.15172	-0.87970	-0.87518
3827.000	-0.24317	-1.19348	-0.89946	-0.90302
3828.000	-0.23724	-1.14973	-0.85005	-0.88911
3829.000	-0.22538	-1.17161	-0.85203	-0.96070
3830.000	-0.19572	-1.17161	-0.89551	-0.84137
3831.000	-0.22142	-1.18155	-0.86784	-0.91496
3832.000	-0.24119	-1.12388	-0.93109	-0.84335
3833.000	-0.20561	-1.16166	-0.83819	-0.86525
3834.000	-0.24317	-1.14178	-0.86981	-0.87916
3835.000	-0.20165	-1.18354	-0.81052	-0.87321
3836.000	-0.21352	-1.12189	-0.81842	-0.92491
3837.000	-0.25503	-1.18751	-0.82040	-0.94281
3838.000	-0.23922	-1.15570	-0.84610	-0.92292
3839.000	-0.21352	-1.16564	-0.88760	-0.94478
3840.000	-0.22735	-1.17161	-0.84412	-0.91298
3841.000	-0.20758	-1.18752	-0.87970	-0.90501
3842.000	-0.24515	-1.17160	-0.80063	-0.92492
3843.000	-0.27678	-1.15370	-0.86191	-0.92490
3844.000	-0.27085	-1.18353	-0.81249	-0.97662
3845.000	-0.22538	-1.13581	-0.84610	-0.94479
3846.000	-0.23329	-1.21336	-0.86981	-0.98854
3847.000	-0.26887	-1.20143	-0.89749	-0.91296
3848.000	-0.24515	-1.17558	-0.85005	-0.92689
3849.000	-0.27085	-1.21535	-0.81645	-0.97463
3850.000	-0.27282	-1.19745	-0.85203	-0.96866
3851.000	-0.25305	-1.20541	-0.89551	-0.93086
3852.000	-0.25701	-1.20939	-0.87377	-0.94081
3853.000	-0.26294	-1.21933	-0.80063	-1.00446
3854.000	-0.22340	-1.18155	-0.78877	-0.93884
3855.000	-0.26689	-1.20740	-0.89551	-0.91296
3856.000	-0.25899	-1.20740	-0.84412	-1.02832
3857.000	-0.21945	-1.20939	-0.80656	-0.97861
3858.000	-0.25701	-1.20541	-0.87772	-0.92689
3859.000	-0.20363	-1.24518	-0.86784	-0.94678
3860.000	-0.24317	-1.21933	-0.85005	-0.92093
3861.000	-0.26492	-1.18552	-0.82831	-1.03628
3862.000	-0.26492	-1.19547	-0.90342	-1.00245
3863.000	-0.25503	-1.18950	-0.83819	-0.99252
3864.000	-0.24317	-1.20342	-0.87970	-0.98456
3865.000	-0.25701	-1.23325	-0.91527	-0.99250
3866.000	-0.27085	-1.28693	-0.87377	-0.94081
3867.000	-0.30050	-1.21535	-0.88760	-0.93285
3868.000	-0.24317	-1.23921	-0.84610	-0.98656
3869.000	-0.25899	-1.23524	-0.92318	-1.04023
3870.000	-0.23526	-1.30881	-0.81447	-1.02435
3871.000	-0.27085	-1.26307	-0.83621	-1.08798
3872.000	-0.30446	-1.27500	-0.82435	-0.95673
3873.000	-0.26887	-1.28892	-0.88760	-1.00842
3874.000	-0.26294	-1.25711	-0.82831	-0.95673
3875.000	-0.29457	-1.34261	-0.86784	-0.98456
3876.000	-0.30643	-1.26705	-0.84412	-1.01042
3877.000	-0.28666	-1.30682	-0.83819	-0.99252
3878.000	-0.30841	-1.27500	-0.83028	-0.95474
3879.000	-0.28864	-1.29687	-0.79470	-0.99850
3880.000	-0.24910	-1.24319	-0.81842	-0.95077
3881.000	-0.25503	-1.25114	-0.83621	-0.93088
3882.000	-0.15618	-1.24121	-0.85993	-0.95672
3883.000	-0.06524	-1.19747	-0.78877	-0.89907
3884.000	-0.02768	-1.22531	-0.67808	-0.80561
3885.000	0.05140	-1.12786	-0.60889	-0.72805
3886.000	0.21549	-1.01251	-0.46261	-0.66641
3887.000	0.33806	-0.93891	-0.42109	-0.55502
3888.000	0.43493	-0.74399	-0.34004	-0.41777
3889.000	0.58517	-0.70817	-0.15421	-0.22878
3890.000	0.80261	-0.55498	-0.02175	-0.16512
3891.000	0.90539	-0.40977	0.17991	0.00000
3892.000	1.08129	-0.23670	0.26887	0.11340
3893.000	1.15244	-0.08951	0.33016	0.31233
3894.000	1.25915	0.02983	0.34399	0.36207
3895.000	1.27298	0.21481	0.39144	0.48540
3896.000	1.19789	0.28045	0.46459	0.57889
3897.000	1.19789	0.35603	0.31829	0.61868
3898.000	1.13860	0.41173	0.31632	0.61868
3899.000	1.01607	0.41771	0.24910	0.66841
3900.000	0.86981	0.46348	0.08699	0.68831
3901.000	0.73540	0.41973	0.01582	0.61869
3902.000	0.56343	0.39388	-0.16804	0.56697
3903.000	0.46063	0.36206	-0.25701	0.58487
3904.000	0.36772	0.27851	-0.38353	0.49336
3905.000	0.30050	0.24072	-0.42307	0.50728
3906.000	0.22142	0.12533	-0.45668	0.37599
3907.000	0.17793	0.03581	-0.48435	0.26458
3908.000	0.22933	-0.04974	-0.52982	0.12334
3909.000	0.17991	-0.11539	-0.47249	0.10743
3910.000	0.23329	-0.21088	-0.40330	0.01790
3911.000	0.26294	-0.30438	-0.41121	-0.05968
3912.000	0.28469	-0.35411	-0.27282	-0.06366
3913.000	0.36376	-0.42970	-0.28271	-0.08753
3914.000	0.39342	-0.44959	-0.28864	-0.13528
3915.000	0.42505	-0.49534	-0.21747	-0.14921
3916.000	0.47249	-0.49136	-0.16409	-0.04377
3917.000	0.53180	-0.47345	-0.14234	-0.07361
3918.000	0.56540	-0.45555	-0.05931	-0.16512
3919.000	0.61878	-0.45554	-0.01582	-0.07560
3920.000	0.54959	-0.47146	-0.01186	-0.06764
3921.000	0.60692	-0.41974	0.02768	-0.03979
3922.000	0.66227	-0.40581	0.00198	-0.03382
3923.000	0.63064	-0.32823	-0.05338	0.07759
3924.000	0.62075	-0.27452	-0.06920	0.05371
3925.000	0.62668	-0.28248	-0.03163	0.11340
3926.000	0.62273	-0.23872	-0.04547	0.15518
3927.000	0.62471	-0.19893	-0.05338	0.21287
3928.000	0.62471	-0.15517	-0.08897	0.17905
3929.000	0.62075	-0.16312	-0.02966	0.15915
3930.000	0.65831	-0.10344	-0.08106	0.25862
3931.000	0.63262	-0.12334	-0.13444	0.22878
3932.000	0.65238	-0.07758	-0.09292	0.25067
3933.000	0.62075	-0.10941	-0.13641	0.20889
3934.000	0.64843	-0.07559	-0.08501	0.26857
3935.000	0.63855	-0.05968	-0.11862	0.25266
3936.000	0.62668	-0.12533	-0.17002	0.24470
3937.000	0.61482	-0.05172	-0.12850	0.28051
3938.000	0.62075	-0.09350	-0.17991	0.33024
3939.000	0.63064	-0.10543	-0.11664	0.23873
3940.000	0.61285	-0.10742	-0.16211	0.29841
3941.000	0.60296	-0.09947	-0.14037	0.31234
3942.000	0.61680	-0.09151	-0.09490	0.29244
3943.000	0.59308	-0.09947	-0.08699	0.29244
3944.000	0.59901	-0.11538	-0.12455	0.23873
3945.000	0.58517	-0.13329	-0.15223	0.22282
3946.000	0.62273	-0.10742	-0.14827	0.28250
3947.000	0.63459	-0.15517	-0.07710	0.27056
3948.000	0.58517	-0.15517	-0.11269	0.24669
3949.000	0.60494	-0.13527	-0.12257	0.24072
3950.000	0.55947	-0.11737	-0.12850	0.22480
3951.000	0.57727	-0.17307	-0.12060	0.16114
3952.000	0.56936	-0.16511	-0.07908	0.26459
3953.000	0.60692	-0.12931	-0.15618	0.23475
3954.000	0.60692	-0.14920	-0.13246	0.27056
3955.000	0.61680	-0.16511	-0.15025	0.20889
3956.000	0.58122	-0.15915	-0.08897	0.19297
3957.000	0.58122	-0.19694	-0.15223	0.24072
3958.000	0.64052	-0.18699	-0.06524	0.27255
3959.000	0.61878	-0.19296	-0.09885	0.28648
3960.000	0.62075	-0.18302	-0.09687	0.23276
3961.000	0.62075	-0.14323	-0.13839	0.28051
3962.000	0.60296	-0.18501	-0.05733	0.21685
3963.000	0.61285	-0.26060	-0.16607	0.27653
3964.000	0.61680	-0.21684	-0.07908	0.26260
3965.000	0.58715	-0.20291	-0.07908	0.23276
3966.000	0.66029	-0.25463	-0.03559	0.23873
3967.000	0.65238	-0.20490	-0.13839	0.25266
3968.000	0.61285	-0.24469	-0.06722	0.28847
3969.000	0.58715	-0.16710	-0.10083	0.28847
3970.000	0.59506	-0.20092	-0.06722	0.34019
3971.000	0.59703	-0.21883	-0.13246	0.23873
3972.000	0.62668	-0.21087	-0.06129	0.27454
3973.000	0.58715	-0.20490	-0.11071	0.25266
3974.000	0.61680	-0.19694	-0.07315	0.22878
3975.000	0.60692	-0.19097	-0.05338	0.24868
3976.000	0.68796	-0.17904	-0.06722	0.24271
3977.000	0.63459	-0.18501	-0.06722	0.26260
3978.000	0.58913	-0.20490	-0.17398	0.26459
3979.000	0.62075	-0.24667	0.00593	0.24072
3980.000	0.62075	-0.16113	-0.12257	0.26061
3981.000	0.59110	-0.21883	-0.08106	0.25465
3982.000	0.63064	-0.20888	-0.06524	0.26260
3983.000	0.63855	-0.19097	-0.10676	0.31632
3984.000	0.61482	-0.20291	-0.07315	0.25664
3985.000	0.60099	-0.18103	-0.07117	0.31632
3986.000	0.64052	-0.18501	0.00593	0.31035
3987.000	0.61285	-0.21087	-0.06524	0.31632
3988.000	0.60296	-0.21684	0.00395	0.28449
3989.000	0.60692	-0.23076	-0.05140	0.23674
3990.000	0.65436	-0.22479	0.03954	0.21088
3991.000	0.62273	-0.24866	-0.06920	0.27056
3992.000	0.63657	-0.28248	-0.02175	0.20690
3993.000	0.63064	-0.29044	0.02372	0.23873
3994.000	0.61482	-0.28845	-0.05536	0.26857
3995.000	0.61878	-0.31033	-0.02768	0.25664
3996.000	0.57133	-0.27453	-0.07908	0.29244
3997.000	0.60099	-0.26657	-0.07513	0.28051
3998.000	0.60099	-0.27651	-0.03559	0.22679
3999.000	0.57529	-0.30834	-0.07513	0.26260
4000.000	0.57331	-0.26856	-0.09094	0.26459
4001.000	0.57529	-0.26060	-0.03559	0.28847
4002.000	0.59506	-0.26060	0.03559	0.32626
4003.000	0.60296	-0.32227	-0.10280	0.25465
4004.000	0.57924	-0.24867	-0.02175	0.26061
4005.000	0.58715	-0.28248	-0.05536	0.28449
4006.000	0.58913	-0.23872	0.01779	0.22878
4007.000	0.56738	-0.26657	-0.05140	0.23873
4008.000	0.60889	-0.23474	-0.00593	0.31035
4009.000	0.59703	-0.23673	0.01186	0.26459
4010.000	0.62471	-0.25463	-0.01384	0.27852
4011.000	0.58320	-0.26458	-0.01582	0.28449
4012.000	0.57133	-0.27652	0.00198	0.22481
4013.000	0.60692	-0.27055	0.05733	0.31433
4014.000	0.60296	-0.26060	-0.02768	0.28449
4015.000	0.59308	-0.23872	-0.03361	0.25862
4016.000	0.57133	-0.28049	-0.01582	0.30836
4017.000	0.58715	-0.28248	-0.06524	0.30637
4018.000	0.61285	-0.23474	-0.02768	0.29244
4019.000	0.59110	-0.27453	-0.01779	0.30836
4020.000	0.57331	-0.26458	0.03756	0.29046
4021.000	0.60099	-0.23076	-0.00198	0.30040
4022.000	0.56738	-0.28049	-0.07117	0.27255
4023.000	0.57529	-0.29840	-0.00395	0.24470
4024.000	0.58122	-0.28845	-0.04943	0.26658
4025.000	0.63855	-0.22678	-0.01186	0.30836
4026.000	0.59110	-0.23673	-0.00593	0.29443
4027.000	0.63855	-0.24667	0.11862	0.28051
4028.000	0.58517	-0.26856	0.04745	0.30836
4029.000	0.64250	-0.26259	-0.09490	0.32228
4030.000	0.60692	-0.25662	0.02175	0.21486
4031.000	0.65634	-0.25264	-0.02966	0.31433
4032.000	0.65436	-0.23076	0.03361	0.25862
4033.000	0.65238	-0.22081	0.01977	0.24669
4034.000	0.63262	-0.27651	-0.03163	0.25266
4035.000	0.63459	-0.27253	0.00000	0.22282
4036.000	0.66029	-0.23076	-0.00198	0.25067
4037.000	0.62471	-0.24468	-0.08106	0.22282
4038.000	0.65041	-0.21286	-0.07710	0.28847
4039.000	0.63459	-0.24468	-0.05733	0.23475
4040.000	0.67017	-0.26060	-0.05338	0.26459
4041.000	0.60494	-0.22678	-0.05140	0.27056
4042.000	0.62866	-0.24270	-0.00198	0.28847
4043.000	0.59901	-0.28447	-0.01977	0.26857
4044.000	0.64448	-0.24269	-0.08106	0.27653
4045.000	0.64843	-0.26060	0.08897	0.23674
4046.000	0.64645	-0.30038	-0.01384	0.29046
4047.000	0.62668	-0.27850	-0.02175	0.20491
4048.000	0.68994	-0.27651	0.00989	0.25465
4049.000	0.69192	-0.28844	0.03559	0.13727
4050.000	0.65436	-0.25264	-0.00198	0.22282
4051.000	0.68796	-0.23275	-0.00791	0.19695
4052.000	0.64645	-0.29243	0.02768	0.24271
4053.000	0.68401	-0.25662	0.03559	0.21088
4054.000	0.69982	-0.27452	0.01186	0.26061
4055.000	0.61087	-0.29641	0.01384	0.27255
4056.000	0.66622	-0.27651	-0.04152	0.22878
4057.000	0.65436	-0.24468	-0.07908	0.21685
4058.000	0.59901	-0.24866	-0.10083	0.24072
4059.000	0.62668	-0.27850	-0.01186	0.27852
4060.000	0.63459	-0.25264	0.00791	0.27255
4061.000	0.63657	-0.26060	-0.05733	0.25664
4062.000	0.60494	-0.25065	0.02768	0.25862
4063.000	0.61878	-0.27651	-0.05140	0.25664
4064.000	0.66029	-0.26060	-0.08106	0.25067
4065.000	0.63855	-0.27850	-0.06129	0.27056
4066.000	0.62273	-0.27850	-0.04152	0.23674
4067.000	0.62273	-0.28646	-0.04152	0.18303
4068.000	0.65831	-0.25861	-0.04152	0.25465
4069.000	0.65436	-0.26657	-0.08501	0.30836
4070.000	0.63657	-0.23673	0.01779	0.25863
4071.000	0.63064	-0.26856	-0.09490	0.30836
4072.000	0.64843	-0.24866	0.01186	0.29443
4073.000	0.64052	-0.27253	-0.04547	0.25465
4074.000	0.62075	-0.27452	-0.01779	0.25664
4075.000	0.60889	-0.26259	0.00791	0.22878
4076.000	0.66029	-0.24070	-0.02966	0.23077
4077.000	0.59703	-0.27453	-0.02372	0.23475
4078.000	0.61878	-0.27651	-0.04943	0.24868
4079.000	0.61285	-0.29840	-0.07117	0.20690
4080.000	0.63855	-0.25861	-0.04152	0.26061
4081.000	0.61087	-0.31829	-0.03361	0.24072
4082.000	0.65238	-0.26060	-0.05536	0.23873
4083.000	0.60494	-0.28845	-0.05338	0.16910
4084.000	0.63262	-0.25264	-0.02768	0.23077
4085.000	0.63459	-0.27452	-0.00593	0.17905
4086.000	0.58517	-0.28447	-0.04547	0.20292
4087.000	0.66227	-0.28049	-0.06524	0.20690
4088.000	0.67610	-0.31033	0.00198	0.18900
4089.000	0.67413	-0.26060	-0.00791	0.21088
4090.000	0.63657	-0.30436	0.04547	0.20690
4091.000	0.63657	-0.26856	-0.00198	0.21287
4092.000	0.64052	-0.26856	-0.02768	0.18900
4093.000	0.63064	-0.29044	-0.08501	0.23077
4094.000	0.64052	-0.26657	-0.03954	0.15518
4095.000	0.66820	-0.24468	-0.06129	0.20093
4096.000	0.65436	-0.30237	-0.03954	0.19099
4097.000	0.62075	-0.22081	-0.09292	0.20690
4098.000	0.66820	-0.26259	-0.03361	0.23873
4099.000	0.64645	-0.23474	-0.08303	0.25067
4100.000	0.66029	-0.23673	-0.08303	0.20889
4101.000	0.66820	-0.27651	0.00395	0.07361
4102.000	0.68599	-0.25264	0.00989	0.22481
4103.000	0.66424	-0.22678	-0.00593	0.21287
4104.000	0.70180	-0.23473	-0.03954	0.13130
4105.000	0.67017	-0.23673	-0.08106	0.19496
4106.000	0.64448	-0.27452	-0.02570	0.24669
4107.000	0.69389	-0.25662	-0.07315	0.19297
4108.000	0.68401	-0.25861	-0.03559	0.21884
4109.000	0.65831	-0.28845	-0.03756	0.20491
4110.000	0.67413	-0.30038	-0.02570	0.14722
4111.000	0.69587	-0.27850	0.00791	0.16711
4112.000	0.68401	-0.29043	0.02175	0.18900
4113.000	0.67413	-0.26259	0.00000	0.16711
4114.000	0.67215	-0.27054	0.00395	0.32427
4115.000	0.72157	-0.28645	-0.04745	0.18303
4116.000	0.69389	-0.26258	0.00395	0.22282
4117.000	0.66227	-0.26259	0.02570	0.20292
4118.000	0.71366	-0.25065	-0.02175	0.20491
4119.000	0.71761	-0.25860	0.01779	0.23674
4120.000	0.67017	-0.28845	0.03756	0.26459
4121.000	0.69587	-0.28248	-0.04349	0.19894
4122.000	0.68796	-0.24667	-0.03163	0.22679
4123.000	0.65831	-0.25463	-0.02768	0.19099
4124.000	0.68006	-0.29043	-0.02372	0.19894
4125.000	0.68599	-0.30834	-0.03954	0.21088
4126.000	0.71959	-0.27253	-0.05140	0.13329
4127.000	0.72354	-0.26059	-0.12060	0.20690
4128.000	0.68796	-0.23275	-0.04349	0.12732
4129.000	0.70575	-0.26855	-0.01582	0.16313
4130.000	0.69389	-0.28844	-0.03163	0.19496
4131.000	0.69587	-0.23871	-0.02175	0.18701
4132.000	0.68994	-0.27850	0.04745	0.22481
4133.000	0.63855	-0.27054	-0.01779	0.16114
4134.000	0.68203	-0.28248	-0.01582	0.11539
4135.000	0.62273	-0.29044	-0.00198	0.11141
4136.000	0.67017	-0.32624	0.00198	0.18502
4137.000	0.67413	-0.31431	-0.03559	0.17706
4138.000	0.68994	-0.31033	0.02372	0.23077
4139.000	0.67808	-0.28646	0.03756	0.18701
4140.000	0.66029	-0.26060	-0.01582	0.16512
4141.000	0.69192	-0.28844	-0.00198	0.19099
4142.000	0.71761	-0.28049	0.04152	0.23873
4143.000	0.68203	-0.26060	-0.07513	0.16313
4144.000	0.66820	-0.35409	0.00198	0.10942
4145.000	0.68599	-0.27253	0.02768	0.14722
4146.000	0.63262	-0.27850	-0.08106	0.17308
4147.000	0.68401	-0.27651	-0.00791	0.18701
4148.000	0.68006	-0.28248	-0.04152	0.20690
4149.000	0.73738	-0.27651	0.04152	0.12732
4150.000	0.69192	-0.29242	0.01186	0.15120
4151.000	0.67017	-0.30038	-0.00791	0.17308
4152.000	0.66820	-0.27452	0.04943	0.11141
4153.000	0.66227	-0.33022	0.05338	0.17905
4154.000	0.67808	-0.27850	0.00791	0.18502
4155.000	0.67610	-0.22280	-0.06920	0.17905
4156.000	0.66227	-0.30237	0.00395	0.21486
4157.000	0.66227	-0.27253	-0.01384	0.19695
4158.000	0.65634	-0.26458	0.00593	0.17507
4159.000	0.71366	-0.32027	0.01779	0.13329
4160.000	0.70180	-0.28844	0.00593	0.16114
4161.000	0.68796	-0.30038	-0.09490	0.14722
4162.000	0.67413	-0.25463	-0.00395	0.14722
4163.000	0.67413	-0.26259	-0.03361	0.15319
4164.000	0.68203	-0.24667	-0.04943	0.12931
4165.000	0.72947	-0.23473	-0.06920	0.14722
4166.000	0.72157	-0.24468	0.00395	0.17308
4167.000	0.72552	-0.23075	-0.04152	0.12334
4168.000	0.72354	-0.27452	0.00791	0.15717
4169.000	0.72552	-0.25065	-0.08501	0.14324
4170.000	0.72947	-0.23274	-0.02372	0.08157
4171.000	0.70575	-0.22081	0.02570	0.15319
4172.000	0.72552	-0.23075	-0.07315	0.09549
4173.000	0.71366	-0.22678	0.04349	0.13926
4174.000	0.70180	-0.26855	0.00593	0.12334
4175.000	0.70575	-0.25662	-0.02768	0.11340
4176.000	0.69192	-0.26457	0.01582	0.13926
4177.000	0.66622	-0.23871	-0.02372	0.19099
4178.000	0.70180	-0.25662	-0.01582	0.16910
4179.000	0.71168	-0.26258	0.03954	0.12334
4180.000	0.69587	-0.22081	-0.04152	0.08157
4181.000	0.70180	-0.28248	0.03954	0.16512
4182.000	0.68994	-0.24866	0.03361	0.21884
4183.000	0.72157	-0.23274	-0.00989	0.16910
4184.000	0.72354	-0.23274	0.00989	0.15120
4185.000	0.69785	-0.22479	-0.02372	0.14523
4186.000	0.72552	-0.20092	-0.01779	0.12334
4187.000	0.74331	-0.19893	-0.01779	0.20690
4188.000	0.74133	-0.22081	0.03361	0.13926
4189.000	0.76703	-0.21882	0.03954	0.13926
4190.000	0.76110	-0.20688	0.02372	0.13528
4191.000	0.74331	-0.20092	0.01186	0.20093
4192.000	0.73738	-0.22081	0.09885	0.11340
4193.000	0.74331	-0.17108	0.00000	0.13727
4194.000	0.71168	-0.22877	0.01582	0.10544
4195.000	0.74726	-0.19495	-0.05536	0.12533
4196.000	0.73343	-0.22877	0.03163	0.17109
4197.000	0.68796	-0.23076	0.10280	0.11738
4198.000	0.68994	-0.30038	-0.03954	0.24271
4199.000	0.74726	-0.22081	-0.02372	0.11340
4200.000	0.72947	-0.25065	0.02175	0.15717
4201.000	0.72552	-0.23075	-0.03163	0.11141
4202.000	0.71168	-0.27253	0.02570	0.11738
4203.000	0.73540	-0.26059	0.03361	0.19297
4204.000	0.71761	-0.25662	-0.04547	0.18701
4205.000	0.72354	-0.20688	-0.04745	0.21486
4206.000	0.68401	-0.25463	0.01977	0.15120
4207.000	0.76110	-0.28048	0.03756	0.12533
4208.000	0.73145	-0.19893	0.04943	0.19496
4209.000	0.73540	-0.23672	0.01384	0.15915
4210.000	0.70378	-0.24070	-0.02966	0.14722
4211.000	0.71168	-0.22877	-0.01582	0.18104
4212.000	0.70378	-0.21285	-0.03163	0.11937
4213.000	0.67215	-0.26060	0.00395	0.14125
4214.000	0.70773	-0.19296	0.00989	0.19695
4215.000	0.72947	-0.22877	-0.01582	0.12136
4216.000	0.71564	-0.23672	-0.00791	0.15915
4217.000	0.68599	-0.27253	0.00395	0.13926
4218.000	0.65634	-0.25463	-0.03163	0.19297
4219.000	0.69982	-0.23275	0.08106	0.12136
4220.000	0.72157	-0.21285	0.01384	0.15319
4221.000	0.71761	-0.22877	0.04547	0.10345
4222.000	0.75715	-0.24468	0.03954	0.11937
4223.000	0.72552	-0.21285	0.02175	0.15518
4224.000	0.71959	-0.24070	0.02372	0.18900
4225.000	0.74331	-0.22280	-0.02768	0.17109
4226.000	0.75319	-0.21882	0.05338	0.14324
4227.000	0.74133	-0.18898	0.01582	0.18900
4228.000	0.73936	-0.22678	-0.08897	0.18701
4229.000	0.73540	-0.21683	-0.00791	0.21685
4230.000	0.71366	-0.25264	-0.02570	0.18303
4231.000	0.70773	-0.22081	0.02768	0.13727
4232.000	0.73343	-0.21683	0.02570	0.18502
4233.000	0.72750	-0.22877	0.03756	0.14921
4234.000	0.73145	-0.22678	0.04152	0.15518
4235.000	0.76308	-0.21285	-0.01582	0.13329
4236.000	0.73936	-0.21285	-0.03559	0.15518
4237.000	0.71168	-0.22479	-0.03361	0.19496
4238.000	0.70971	-0.22678	-0.01582	0.19496
4239.000	0.74924	-0.25264	-0.02570	0.11937
4240.000	0.74331	-0.24866	0.00395	0.09549
4241.000	0.71366	-0.23871	0.06920	0.16711
4242.000	0.75122	-0.19296	-0.04152	0.10942
4243.000	0.71761	-0.22081	0.04745	0.13926
4244.000	0.74331	-0.23871	-0.01779	0.16512
4245.000	0.75319	-0.22479	-0.04547	0.14324
4246.000	0.72157	-0.25065	-0.00989	0.13329
4247.000	0.73936	-0.24667	-0.01779	0.15319
4248.000	0.73738	-0.22877	0.07315	0.16512
4249.000	0.73343	-0.22280	0.00000	0.25067
4250.000	0.71168	-0.20887	-0.08699	0.14324
4251.000	0.72157	-0.21683	0.04349	0.07560
4252.000	0.73343	-0.21882	-0.02768	0.07759
4253.000	0.75715	-0.24866	-0.02966	0.13727
4254.000	0.73145	-0.23274	-0.05536	0.10146
4255.000	0.74726	-0.25065	-0.01186	0.16711
4256.000	0.77296	-0.21484	0.06129	0.16512
4257.000	0.74331	-0.22876	-0.02175	0.13528
4258.000	0.77494	-0.19097	0.02570	0.16910
4259.000	0.73145	-0.20489	-0.00593	0.19099
4260.000	0.77296	-0.24070	-0.00395	0.14125
4261.000	0.72947	-0.23871	0.02570	0.14921
4262.000	0.78482	-0.23871	0.04349	0.09947
4263.000	0.69587	-0.21484	-0.00395	0.10544
4264.000	0.75319	-0.24667	-0.03163	0.03780
4265.000	0.73738	-0.25463	0.04152	0.13926
4266.000	0.77691	-0.22478	0.02570	0.09549
4267.000	0.72750	-0.25065	-0.01384	0.20292
4268.000	0.74924	-0.20887	-0.00593	0.04576
4269.000	0.73540	-0.23871	0.03954	0.11738
4270.000	0.71564	-0.23473	0.04547	0.05570
4271.000	0.76308	-0.25462	-0.01186	0.08157
4272.000	0.73738	-0.21086	-0.02966	0.12334
4273.000	0.73738	-0.26656	0.02570	0.15120
4274.000	0.75715	-0.25462	-0.03163	0.08555
4275.000	0.74529	-0.19097	-0.00395	0.09549
4276.000	0.74529	-0.30038	0.01582	0.03979
4277.000	0.72552	-0.24468	0.03361	0.04576
4278.000	0.69587	-0.23871	0.06722	0.06167
4279.000	0.74331	-0.22081	-0.00593	0.04974
4280.000	0.77296	-0.27054	-0.05536	0.09151
4281.000	0.71959	-0.29441	0.00198	0.11141
4282.000	0.73540	-0.27850	0.00989	0.00796
4283.000	0.75319	-0.23473	-0.02175	0.12533
4284.000	0.80261	-0.23274	0.08106	0.11141
4285.000	0.76110	-0.22280	0.01779	0.19695
4286.000	0.73540	-0.23274	0.10676	0.12732
4287.000	0.77889	-0.29441	-0.00198	0.14523
4288.000	0.71168	-0.23076	0.01582	0.17109
4289.000	0.74133	-0.27253	0.05536	0.10743
4290.000	0.73343	-0.24866	0.04745	0.14523
4291.000	0.72750	-0.26855	0.00989	0.15319
4292.000	0.73738	-0.25264	-0.00593	0.04775
4293.000	0.74726	-0.23473	0.01384	0.09549
4294.000	0.75122	-0.23473	0.02372	0.04178
4295.000	0.74924	-0.25462	0.06920	0.15518
4296.000	0.78087	-0.26656	0.04745	0.08555
4297.000	0.75319	-0.24667	0.04152	0.07361
4298.000	0.74726	-0.29043	0.02966	0.01592
4299.000	0.74529	-0.27850	0.03954	0.02586
4300.000	0.74726	-0.26855	0.01384	0.10146
4301.000	0.76703	-0.21683	0.01582	0.06167
4302.000	0.71959	-0.26059	0.00395	0.00000
4303.000	0.73145	-0.24070	0.00989	0.07958
4304.000	0.76703	-0.29839	0.02372	0.07759
4305.000	0.72157	-0.25662	0.00989	0.04576
4306.000	0.77098	-0.25064	0.01186	0.07162
4307.000	0.79273	-0.25462	0.05931	0.03183
4308.000	0.77098	-0.20887	-0.00989	0.05769
4309.000	0.77296	-0.21882	-0.03954	0.08555
4310.000	0.75122	-0.27452	0.00593	0.08356
4311.000	0.74133	-0.23672	-0.00593	0.07759
4312.000	0.75517	-0.26855	0.01977	0.06565
4313.000	0.73936	-0.26656	0.00395	0.08952
4314.000	0.73343	-0.25065	0.01977	0.16512
4315.000	0.76901	-0.26457	0.04152	0.09947
4316.000	0.74133	-0.27651	0.06920	0.18502
4317.000	0.75715	-0.27452	-0.01582	0.11340
4318.000	0.71168	-0.26059	0.02175	0.08356
4319.000	0.75319	-0.23274	0.04547	0.12334
4320.000	0.73343	-0.24667	-0.04152	0.12334
4321.000	0.74133	-0.29043	-0.01384	0.12931
4322.000	0.73540	-0.22479	0.03559	0.18104
4323.000	0.77098	-0.24269	0.08699	0.12931
4324.000	0.76703	-0.21882	-0.02570	0.03979
4325.000	0.76110	-0.21484	-0.00791	0.13727
4326.000	0.78877	-0.27451	0.01186	0.08157
4327.000	0.75319	-0.27849	-0.00593	0.10743
4328.000	0.76703	-0.21882	-0.02768	0.09549
4329.000	0.74924	-0.21086	-0.04547	0.10544
4330.000	0.77889	-0.27849	0.05140	0.10942
4331.000	0.73738	-0.22479	0.01384	0.10345
4332.000	0.75517	-0.26855	-0.00989	0.13329
4333.000	0.75122	-0.26059	0.03559	0.13329
4334.000	0.74726	-0.22479	0.06129	0.03780
4335.000	0.75122	-0.25264	0.02372	0.14324
4336.000	0.72750	-0.23075	0.04943	0.12533
4337.000	0.77098	-0.23672	0.01384	0.12334
4338.000	0.72354	-0.24070	0.01186	0.16114
4339.000	0.72947	-0.28446	0.02570	0.12334
4340.000	0.77296	-0.25064	-0.04349	0.15120
4341.000	0.73540	-0.25264	0.02372	0.12732
4342.000	0.76505	-0.20688	0.02768	-0.00398
4343.000	0.72552	-0.29441	0.03361	0.11738
4344.000	0.74133	-0.21484	-0.03559	0.17109
4345.000	0.76308	-0.26656	0.06722	0.16114
4346.000	0.72947	-0.27651	0.09094	0.20889
4347.000	0.77098	-0.23672	0.04152	0.10942
4348.000	0.78284	-0.22876	0.06326	0.16512
4349.000	0.74331	-0.22479	0.07315	0.09151
4350.000	0.73936	-0.26059	-0.00198	0.12931
4351.000	0.73145	-0.27850	0.07710	0.11340
4352.000	0.74924	-0.26258	0.08699	0.14722
4353.000	0.75319	-0.24269	0.06524	0.04178
4354.000	0.77889	-0.29043	0.04547	0.10743
4355.000	0.76703	-0.26656	0.04152	0.11340
4356.000	0.78087	-0.24865	0.07908	0.12334
4357.000	0.81842	-0.21285	0.07710	0.18900
4358.000	0.76703	-0.21086	0.09885	0.16512
4359.000	0.77296	-0.20489	0.11862	0.14125
4360.000	0.77691	-0.17903	0.08501	0.28847
4361.000	0.79470	-0.06366	0.06326	0.39589
4362.000	0.81249	-0.02785	0.11071	0.37003
4363.000	0.84412	0.01392	0.11664	0.48342
4364.000	0.89946	0.11736	0.15816	0.58686
4365.000	0.95876	0.15316	0.20561	0.67836
4366.000	0.97654	0.29638	0.27282	0.73206
4367.000	1.02200	0.34610	0.30248	0.80367
4368.000	1.04572	0.45550	0.24712	0.88323
4369.000	1.13070	0.57084	0.35981	0.93493
4370.000	1.13268	0.65238	0.27678	1.10995
4371.000	1.11094	0.76177	0.33806	1.14177
4372.000	1.14256	0.80750	0.30643	1.11393
4373.000	1.10106	0.90495	0.41319	1.23124
4374.000	1.06943	1.00240	0.29655	1.35454
4375.000	1.04967	1.05212	0.28666	1.34261
4376.000	1.01607	1.14956	0.24515	1.36051
4377.000	0.85598	1.09195	0.17793	1.36051
4378.000	0.87377	1.08399	0.10083	1.37841
4379.000	0.81645	1.10389	0.12060	1.31280
4380.000	0.78284	1.05816	0.08106	1.35654
4381.000	0.79470	1.01043	0.05536	1.36052
4382.000	0.76901	0.92691	0.07908	1.29689
4383.000	0.79075	0.91895	0.09490	1.17957
4384.000	0.74529	0.77378	0.06129	1.10798
4385.000	0.79075	0.75587	0.10280	1.06025
4386.000	0.83028	0.72404	0.17002	1.00854
4387.000	0.86388	0.60669	0.21747	0.96677
4388.000	0.83226	0.55896	0.17002	0.89716
4389.000	0.79273	0.49133	0.20363	0.90511
4390.000	0.86388	0.51121	0.26887	0.83351
4391.000	0.86586	0.49331	0.31632	0.78378
4392.000	0.86388	0.44756	0.30050	0.83549
4393.000	0.90144	0.52115	0.18386	0.74798
4394.000	0.89749	0.48137	0.25108	0.88522
4395.000	0.89156	0.45353	0.32422	0.79571
4396.000	0.92318	0.55297	0.29655	0.84146
4397.000	0.91132	0.56093	0.27678	0.87328
4398.000	0.89353	0.56690	0.33213	0.81560
4399.000	0.93109	0.56093	0.32620	1.00057
4400.000	0.94295	0.62656	0.26887	0.93295
4401.000	0.91725	0.64845	0.31632	1.01250
4402.000	0.90539	0.67430	0.30446	0.96676
4403.000	0.95678	0.73794	0.28864	0.98864
4404.000	0.92713	0.73198	0.24910	1.04632
4405.000	0.91725	0.70811	0.30050	1.08609
4406.000	0.92516	0.76181	0.26492	1.09603
4407.000	0.90737	0.77772	0.24712	1.10797
4408.000	0.90539	0.78369	0.29457	1.05825
4409.000	0.92713	0.78568	0.22933	1.06024
4410.000	0.90342	0.79562	0.19968	1.12388
4411.000	0.89749	0.81949	0.17002	1.03837
4412.000	0.93109	0.74988	0.27085	1.12189
4413.000	0.90737	0.80756	0.20363	1.11394
4414.000	0.95283	0.80158	0.21945	1.10598
4415.000	0.92120	0.83540	0.24712	1.14774
4416.000	0.90144	0.79960	0.20363	1.17757
4417.000	0.93899	0.77971	0.25305	1.10598
4418.000	0.90342	0.80159	0.21352	1.09604
4419.000	0.89156	0.76182	0.24317	1.18354
4420.000	0.93109	0.81551	0.19968	1.17360
4421.000	0.92318	0.79363	0.24317	1.07217
4422.000	0.89749	0.81551	0.23724	1.12587
4423.000	0.90737	0.73596	0.29457	1.04432
4424.000	0.91527	0.80557	0.27480	1.10001
4425.000	0.92120	0.80556	0.29852	1.08012
4426.000	0.92911	0.78766	0.29259	1.16365
4427.000	0.93504	0.80954	0.25503	1.07217
4428.000	0.92516	0.79363	0.26096	1.07217
4429.000	0.95283	0.75783	0.25305	1.05228
4430.000	0.90737	0.79562	0.22735	1.09803
4431.000	0.95480	0.77573	0.31236	1.05626
4432.000	0.92911	0.78965	0.18386	1.07416
4433.000	0.96271	0.80953	0.25701	1.06620
4434.000	0.93899	0.79363	0.23526	1.00455
4435.000	0.92713	0.78766	0.27282	1.04035
4436.000	0.93702	0.80158	0.29852	1.06819
4437.000	0.89353	0.76579	0.32422	1.02443
4438.000	0.92318	0.78170	0.26294	1.10001
4439.000	0.92911	0.75783	0.25701	1.09603
4440.000	0.91725	0.76778	0.26689	1.07416
4441.000	0.96073	0.77970	0.26887	0.98665
4442.000	0.92120	0.76181	0.23526	1.00853
4443.000	0.90737	0.78369	0.22340	1.06422
4444.000	0.95480	0.76976	0.19375	0.94091
4445.000	0.92318	0.74391	0.29062	1.10001
4446.000	0.91527	0.78170	0.30446	1.06023
4447.000	0.96666	0.80158	0.20956	1.10002
4448.000	0.95283	0.76180	0.24119	1.13979
4449.000	0.96666	0.75186	0.20363	1.02047
4450.000	0.94295	0.77971	0.23922	1.10200
4451.000	0.89353	0.79364	0.21154	1.01052
4452.000	0.92911	0.79363	0.26887	1.01052
4453.000	0.96073	0.76976	0.25305	1.04433
4454.000	0.93702	0.75385	0.22933	1.07018
4455.000	0.91725	0.75783	0.28469	1.10796
4456.000	0.89749	0.76778	0.26294	1.08609
4457.000	0.92318	0.73596	0.24712	1.05626
4458.000	0.89551	0.75187	0.22142	1.07217
4459.000	0.90342	0.74789	0.31632	1.08410
4460.000	0.91527	0.75386	0.30050	1.08609
4461.000	0.93109	0.80755	0.28271	1.03438
4462.000	0.92911	0.75584	0.22735	1.06223
4463.000	0.94295	0.77573	0.20758	1.04433
4464.000	0.91923	0.78369	0.27480	1.05228
4465.000	0.92318	0.76579	0.23724	1.12189
4466.000	0.89353	0.77375	0.20758	1.13183
4467.000	0.92318	0.73794	0.22735	1.07217
4468.000	0.92318	0.74192	0.21945	1.11394
4469.000	0.92911	0.72601	0.19177	1.05229
4470.000	0.90737	0.76181	0.21747	1.10002
4471.000	0.94097	0.72203	0.25701	1.09007
4472.000	0.91725	0.76778	0.27876	1.10399
4473.000	0.91725	0.76778	0.28469	1.06024
4474.000	0.92911	0.82943	0.27085	1.14973
4475.000	0.89946	0.78170	0.24515	1.07217
4476.000	0.91330	0.82347	0.26096	1.08012
4477.000	0.86981	0.78370	0.20956	1.07416
4478.000	0.92120	0.78965	0.25503	1.08211
4479.000	0.91923	0.75386	0.26492	1.10995
4480.000	0.92120	0.78965	0.27282	1.09603
4481.000	0.91725	0.76579	0.31434	1.09006
4482.000	0.88958	0.75585	0.24119	1.02842
4483.000	0.95678	0.80158	0.26492	1.09405
4484.000	0.90934	0.79165	0.25305	1.12189
4485.000	0.89749	0.71607	0.27480	1.07615
4486.000	0.89749	0.77574	0.22142	1.08013
4487.000	0.86388	0.76182	0.24119	1.12388
4488.000	0.88563	0.69420	0.27085	1.08609
4489.000	0.92713	0.72601	0.26096	1.07416
4490.000	0.90934	0.74789	0.19770	1.08808
4491.000	0.90144	0.71010	0.31829	1.10796
4492.000	0.89353	0.73596	0.24515	1.13183
4493.000	0.89749	0.71806	0.25701	1.16763
4494.000	0.95678	0.72799	0.28271	1.05825
4495.000	0.95283	0.73197	0.16014	1.12189
4496.000	0.96271	0.71208	0.18781	1.15172
4497.000	0.93702	0.67231	0.25899	1.08410
4498.000	0.90342	0.72005	0.25108	1.11791
4499.000	0.93306	0.68225	0.17200	1.18155
4500.000	0.95876	0.70413	0.23329	1.15371
4501.000	0.93702	0.68822	0.23329	1.13780
4502.000	0.98247	0.71009	0.22735	1.13979
4503.000	0.90144	0.67033	0.25305	1.11194
4504.000	0.94295	0.68225	0.19572	1.18553
4505.000	0.95480	0.69617	0.27480	1.04830
4506.000	0.94690	0.72601	0.18979	1.06820
4507.000	0.94097	0.72203	0.22735	1.10200
4508.000	0.98445	0.72799	0.19770	1.13979
4509.000	0.96666	0.72004	0.15421	1.10400
4510.000	0.92120	0.71607	0.27678	1.10797
4511.000	0.92318	0.75187	0.28469	1.09802
4512.000	0.93702	0.74391	0.25305	1.07018
4513.000	0.94492	0.73396	0.20561	1.05428
4514.000	0.94097	0.76380	0.26294	1.10001
4515.000	0.86981	0.72801	0.21154	1.06621
4516.000	0.93504	0.77175	0.28271	1.10200
4517.000	0.96073	0.75584	0.31039	1.04035
4518.000	0.93306	0.72402	0.29852	1.10200
4519.000	0.94097	0.74590	0.26294	1.08211
4520.000	0.94097	0.75385	0.31236	1.11194
4521.000	0.96469	0.75981	0.27876	1.12387
4522.000	0.92120	0.76778	0.33213	1.08410
4523.000	0.97457	0.71009	0.26689	1.08609
4524.000	1.00421	0.75185	0.33016	0.99858
4525.000	0.97654	0.73396	0.38946	1.03238
4526.000	0.94097	0.73595	0.29062	1.06421
4527.000	0.92713	0.70413	0.24119	1.11791
4528.000	0.96271	0.73396	0.30050	1.08211
4529.000	0.95283	0.78368	0.27085	1.01450
4530.000	0.93899	0.77772	0.27678	1.08808
4531.000	0.92713	0.75187	0.29655	1.03239
4532.000	0.94097	0.76578	0.25899	1.02245
4533.000	0.97654	0.72998	0.33213	1.01847
4534.000	0.90934	0.77772	0.22933	1.07018
4535.000	0.90934	0.76778	0.31434	1.04830
4536.000	0.90539	0.76778	0.31236	1.07018
4537.000	0.91527	0.77176	0.29655	1.07416
4538.000	0.89551	0.69022	0.29852	1.02841
4539.000	0.94097	0.75584	0.20363	1.02047
4540.000	0.91330	0.74391	0.36179	1.00454
4541.000	0.91132	0.70811	0.33609	1.00653
4542.000	0.92911	0.74590	0.38551	1.01846
4543.000	0.94887	0.73595	0.33411	1.03637
4544.000	0.92120	0.72999	0.36376	1.07614
4545.000	0.90342	0.71607	0.29259	1.01847
4546.000	0.94097	0.78567	0.36969	1.02443
4547.000	0.94492	0.72800	0.36574	1.06420
4548.000	0.94887	0.70811	0.26492	1.03239
4549.000	0.91923	0.73596	0.27678	1.02444
4550.000	0.93899	0.74391	0.32620	1.03637
4551.000	0.86388	0.71608	0.35981	0.96874
4552.000	0.85796	0.75387	0.31236	1.03637
4553.000	0.97062	0.73197	0.25108	0.97273
4554.000	0.96864	0.77174	0.33016	1.01449
4555.000	0.90144	0.77375	0.31236	1.06421
4556.000	0.90934	0.74192	0.31039	1.01449
4557.000	0.91330	0.74988	0.26689	1.00654
4558.000	0.93702	0.78766	0.30050	1.01250
4559.000	0.92713	0.79960	0.23131	1.06820
4560.000	0.92911	0.79164	0.32225	1.03637
4561.000	0.89156	0.76579	0.33016	0.97670
4562.000	0.94295	0.74590	0.30248	1.04830
4563.000	0.92516	0.78766	0.32818	1.02443
4564.000	0.91725	0.74590	0.27876	1.01847
4565.000	0.87772	0.74790	0.27480	0.99858
4566.000	0.94097	0.80556	0.34004	0.99858
4567.000	0.97654	0.77174	0.34795	1.00852
4568.000	0.94690	0.79164	0.36969	1.02443
4569.000	0.92911	0.79363	0.24317	0.92699
4570.000	0.91132	0.79562	0.33609	1.00653
4571.000	0.90144	0.82546	0.24515	1.06223
4572.000	0.85005	0.77774	0.21154	1.02245
4573.000	0.81249	0.78570	0.20561	1.01649
4574.000	0.61878	0.78573	0.08106	1.06224
4575.000	0.49819	0.83348	0.00791	1.12985
4576.000	0.41319	0.90708	-0.12653	1.05627
4577.000	0.20758	0.93296	-0.32422	1.10796
4578.000	-0.02570	0.96280	-0.50412	1.11987
4579.000	-0.17200	0.97671	-0.76703	1.22122
4580.000	-0.38353	1.03636	-0.90934	1.27486
4581.000	-0.55947	1.06418	-1.20184	1.23498
4582.000	-0.67413	1.10591	-1.21370	1.31449
4583.000	-0.76110	1.14964	-1.36585	1.38796
4584.000	-0.91132	1.16948	-1.45476	1.31635
4585.000	-0.88563	1.18539	-1.49823	1.41571
4586.000	-0.90737	1.14562	-1.51008	1.49917
4587.000	-0.86191	1.12376	-1.43500	1.46742
4588.000	-0.80261	1.19934	-1.29274	1.47745
4589.000	-0.62471	1.19342	-1.25322	1.51722
4590.000	-0.55552	1.13775	-1.13860	1.51729
4591.000	-0.39342	1.14772	-0.94295	1.53726
4592.000	-0.26492	1.13978	-0.80261	1.51545
4593.000	-0.15618	1.10400	-0.61087	1.52147
4594.000	-0.00791	1.11792	-0.61878	1.48569
4595.000	0.02966	1.06224	-0.42505	1.44200
4596.000	0.09885	1.07815	-0.41121	1.42013
4597.000	0.14827	1.12587	-0.34597	1.28891
4598.000	0.18584	1.05825	-0.34597	1.35254
4599.000	0.15816	1.02644	-0.37365	1.30084
4600.000	0.13641	1.04831	-0.38353	1.28294
4601.000	0.13048	1.02047	-0.40923	1.21334
4602.000	0.06920	1.00854	-0.49424	1.23123
4603.000	0.03954	1.05428	-0.49028	1.22924
4604.000	0.01779	1.07616	-0.50215	1.26105
4605.000	0.00000	1.02843	-0.53773	1.23519
4606.000	-0.05338	1.02246	-0.61878	1.27296
4607.000	-0.09885	1.06025	-0.64250	1.31073
4608.000	-0.12257	1.06621	-0.61878	1.29085
4609.000	-0.14432	1.07019	-0.67808	1.32464
4610.000	-0.17398	1.00456	-0.70180	1.31071
4611.000	-0.15025	1.10400	-0.70378	1.35246
4612.000	-0.18781	1.07218	-0.70575	1.29679
4613.000	-0.22142	1.09604	-0.77889	1.36238
4614.000	-0.23724	1.11393	-0.79075	1.40015
4615.000	-0.23922	1.07416	-0.77494	1.41805
4616.000	-0.18979	1.07814	-0.80656	1.40213
4617.000	-0.27085	1.05029	-0.75319	1.43197
4618.000	-0.27876	1.06620	-0.80854	1.33056
4619.000	-0.27876	1.09603	-0.81249	1.42996
4620.000	-0.23131	1.10200	-0.69785	1.36042
4621.000	-0.25305	1.13979	-0.80459	1.42202
