time (ms)	lx (deg)	ly (deg)	rx (deg)	ry (deg)
0.000	-0.19770	-0.03780	0.20956	-0.05371
1.000	-0.17991	-0.01989	0.20165	-0.05769
2.000	-0.20363	-0.04775	0.18386	-0.02188
3.000	-0.18386	-0.02785	0.21154	0.00995
4.000	-0.17398	-0.04974	0.14037	0.01989
5.000	-0.17595	-0.02586	0.25701	-0.10146
6.000	-0.18979	-0.01989	0.26492	0.01194
7.000	-0.22142	-0.01790	0.16607	-0.06366
8.000	-0.20165	-0.03979	0.24317	-0.02188
9.000	-0.17991	-0.05173	0.16607	0.04377
10.000	-0.18584	-0.01592	0.19968	0.02984
11.000	-0.16014	-0.02188	0.14827	0.00000
12.000	-0.20561	0.01194	0.22933	0.00796
13.000	-0.18386	0.01194	0.17991	-0.04775
14.000	-0.23526	-0.02785	0.19770	0.01790
15.000	-0.15421	-0.06565	0.19572	0.02785
16.000	-0.19177	-0.01393	0.21549	0.00000
17.000	-0.15618	-0.02984	0.18781	-0.03780
18.000	-0.21945	-0.01194	0.14827	-0.01989
19.000	-0.19770	-0.01790	0.17991	-0.01393
20.000	-0.17793	-0.02586	0.13839	-0.04576
21.000	-0.17991	-0.02387	0.17595	-0.02188
22.000	-0.18188	0.00995	0.23724	0.00000
23.000	-0.18584	-0.07560	0.22538	-0.04377
24.000	-0.22933	-0.06764	0.21747	-0.01592
25.000	-0.17398	-0.05173	0.12257	-0.04775
26.000	-0.17200	-0.02785	0.20956	-0.01194
27.000	-0.17398	-0.01790	0.17398	0.00000
28.000	-0.17595	-0.04775	0.15816	-0.02586
29.000	-0.19968	-0.00199	0.12850	-0.00199
30.000	-0.20758	-0.01989	0.17200	-0.00995
31.000	-0.18188	-0.03382	0.21352	-0.07361
32.000	-0.16607	-0.07162	0.18781	-0.06167
33.000	-0.19572	-0.03780	0.19572	-0.02984
34.000	-0.22142	-0.01393	0.20165	0.00398
35.000	-0.18584	-0.03382	0.14234	-0.00995
36.000	-0.22142	-0.03780	0.13444	0.01194
37.000	-0.21154	-0.01194	0.27282	-0.02984
38.000	-0.20165	0.00398	0.17200	-0.05769
39.000	-0.18979	-0.01194	0.17398	0.00597
40.000	-0.18584	0.00398	0.21945	-0.00398
41.000	-0.17200	0.00199	0.18188	-0.05570
42.000	-0.20561	-0.01592	0.20165	-0.04576
43.000	-0.21747	0.00398	0.23131	-0.00597
44.000	-0.22735	-0.00995	0.21154	-0.05172
45.000	-0.23724	-0.03780	0.26294	0.05172
46.000	-0.22142	-0.00796	0.19177	-0.02785
47.000	-0.20165	0.01393	0.19572	-0.03780
48.000	-0.16804	0.02387	0.18188	-0.06963
49.000	-0.20561	0.00000	0.18979	-0.02387
50.000	-0.19572	-0.01989	0.20363	-0.04377
51.000	-0.19177	0.02586	0.17398	-0.05769
52.000	-0.22735	0.00796	0.20561	-0.06764
53.000	-0.21352	0.01592	0.17595	-0.01194
54.000	-0.23329	0.00796	0.12653	-0.06565
55.000	-0.20561	0.00199	0.26096	-0.00398
56.000	-0.18386	0.03183	0.19177	-0.07958
57.000	-0.19177	0.02785	0.22142	-0.07361
58.000	-0.21352	0.00796	0.24317	0.02188
59.000	-0.17200	0.02387	0.24515	-0.00796
60.000	-0.20561	-0.00398	0.18386	-0.02785
61.000	-0.21549	-0.01592	0.21945	-0.05968
62.000	-0.21945	0.03581	0.20363	-0.03979
63.000	-0.20363	0.00597	0.19770	0.00398
64.000	-0.15223	0.00199	0.16014	-0.01592
65.000	-0.20165	-0.02586	0.16014	0.02188
66.000	-0.19177	0.03979	0.19572	-0.05173
67.000	-0.19968	0.02785	0.16804	-0.10942
68.000	-0.22142	-0.00199	0.22340	-0.05769
69.000	-0.17991	0.02785	0.26689	-0.06167
70.000	-0.16211	0.01194	0.21945	0.01592
71.000	-0.19572	-0.02387	0.16804	-0.04775
72.000	-0.18386	-0.00398	0.16211	0.01790
73.000	-0.21154	-0.00597	0.17991	0.04974
74.000	-0.18584	-0.02984	0.26096	-0.04775
75.000	-0.20561	0.01194	0.21747	-0.07759
76.000	-0.17991	0.02586	0.29062	-0.01194
77.000	-0.17200	0.00796	0.24910	-0.01194
78.000	-0.19177	-0.00398	0.23724	-0.05172
79.000	-0.19968	0.00995	0.23724	-0.04178
80.000	-0.21747	0.02984	0.34597	-0.00796
81.000	-0.20758	-0.00199	0.14234	-0.07361
82.000	-0.19375	0.02387	0.24119	-0.03979
83.000	-0.19770	0.01790	0.26294	-0.04775
84.000	-0.21747	-0.03183	0.19375	-0.04377
85.000	-0.22340	0.01592	0.21945	0.00000
86.000	-0.20956	0.03581	0.22538	-0.03183
87.000	-0.22142	0.03382	0.19770	-0.04775
88.000	-0.17793	0.04377	0.21549	-0.04377
89.000	-0.18781	0.03979	0.28666	-0.04178
90.000	-0.17991	0.02387	0.24910	-0.03581
91.000	-0.20561	0.04377	0.24910	-0.02785
92.000	-0.22538	0.04775	0.26887	-0.05570
93.000	-0.18386	0.05173	0.21352	-0.01989
94.000	-0.19177	0.03183	0.22538	-0.01989
95.000	-0.24119	0.02387	0.26887	-0.05371
96.000	-0.18584	0.03183	0.17002	-0.07958
97.000	-0.17991	0.03581	0.27480	-0.02984
98.000	-0.16804	0.07361	0.25108	-0.02586
99.000	-0.20363	0.06366	0.20758	-0.11141
100.000	-0.18979	0.03979	0.22933	-0.05371
101.000	-0.17595	0.03581	0.33411	-0.13329
102.000	-0.21549	0.06167	0.31829	-0.08753
103.000	-0.20758	0.01592	0.23526	-0.06565
104.000	-0.18979	0.05769	0.30248	-0.07162
105.000	-0.24317	0.05769	0.32422	-0.08753
106.000	-0.20363	0.06167	0.25701	-0.11539
107.000	-0.22933	0.05172	0.25899	-0.09350
108.000	-0.22142	0.05769	0.26096	-0.07560
109.000	-0.23131	0.03183	0.28073	-0.08952
110.000	-0.25701	0.02586	0.26689	-0.06764
111.000	-0.23526	0.04576	0.22538	-0.06366
112.000	-0.24910	0.03183	0.25108	-0.06764
113.000	-0.26887	0.07361	0.29062	-0.09151
114.000	-0.24712	0.03780	0.31236	-0.03183
115.000	-0.25899	0.04576	0.26689	0.00597
116.000	-0.27876	0.00000	0.28666	-0.01393
117.000	-0.25701	0.02586	0.27085	-0.03183
118.000	-0.29852	0.01989	0.20758	-0.06167
119.000	-0.24515	0.04974	0.23526	-0.04775
120.000	-0.27678	0.02984	0.27085	-0.07958
121.000	-0.23131	0.02785	0.32422	-0.02984
122.000	-0.26492	0.05371	0.21945	-0.05968
123.000	-0.24119	0.07958	0.30643	-0.09549
124.000	-0.24119	0.03979	0.32818	-0.07560
125.000	-0.21549	0.00398	0.30050	-0.08753
126.000	-0.25899	0.03183	0.33806	-0.06366
127.000	-0.26887	0.04576	0.37958	-0.06565
128.000	-0.26887	0.04974	0.28073	-0.12135
129.000	-0.25305	0.07162	0.35388	-0.10942
130.000	-0.21352	0.07958	0.28469	-0.04775
131.000	-0.24515	0.05769	0.27480	-0.07162
132.000	-0.20561	0.02984	0.26689	-0.02586
133.000	-0.27876	0.06366	0.31434	-0.04775
134.000	-0.29655	0.03581	0.30446	-0.11539
135.000	-0.26689	0.05968	0.36772	-0.07361
136.000	-0.29457	0.02984	0.22340	-0.08555
137.000	-0.27282	0.03780	0.25899	-0.00995
138.000	-0.24515	0.06565	0.34597	-0.04974
139.000	-0.26689	0.02387	0.28666	-0.03382
140.000	-0.27678	0.02984	0.24910	-0.00199
141.000	-0.29259	0.02785	0.29852	-0.06963
142.000	-0.24515	0.06167	0.31829	-0.08355
143.000	-0.26294	0.09151	0.28469	-0.05371
144.000	-0.28073	0.03780	0.37760	-0.03581
145.000	-0.28073	0.03979	0.30248	0.00199
146.000	-0.27480	0.05172	0.27480	-0.02984
147.000	-0.24712	0.06963	0.31632	-0.09549
148.000	-0.24910	0.08157	0.29655	-0.01194
149.000	-0.22735	0.06565	0.22735	-0.01393
150.000	-0.26096	0.05968	0.25899	-0.09151
151.000	-0.25108	0.02188	0.34004	-0.00597
152.000	-0.28073	0.02586	0.33213	-0.02785
153.000	-0.28073	0.08554	0.27085	-0.06764
154.000	-0.30050	0.05172	0.29259	-0.04576
155.000	-0.27678	0.00796	0.29655	-0.05371
156.000	-0.30643	0.06764	0.27678	-0.00995
157.000	-0.31632	0.04974	0.29457	-0.00597
158.000	-0.28666	0.03183	0.19770	-0.01790
159.000	-0.29259	0.04974	0.24119	-0.06565
160.000	-0.29457	0.03979	0.23329	-0.02387
161.000	-0.24910	0.05371	0.31434	-0.03183
162.000	-0.32225	0.02586	0.28073	-0.02188
163.000	-0.30841	0.03183	0.27480	-0.03780
164.000	-0.28469	0.03183	0.33806	-0.07162
165.000	-0.29259	0.03979	0.24515	-0.03581
166.000	-0.31829	0.03979	0.27480	-0.08952
167.000	-0.30643	0.00199	0.27480	-0.09549
168.000	-0.29457	0.04178	0.24119	-0.04178
169.000	-0.28864	0.04775	0.33016	-0.04974
170.000	-0.28666	-0.00199	0.25108	-0.10146
171.000	-0.29457	-0.01194	0.30446	-0.05172
172.000	-0.30841	-0.00995	0.32027	-0.02785
173.000	-0.28271	0.01790	0.26294	-0.03183
174.000	-0.32620	-0.02984	0.27282	-0.06565
175.000	-0.27085	0.00199	0.30841	-0.06167
176.000	-0.25899	-0.00398	0.30643	-0.07958
177.000	-0.26294	0.03183	0.35586	-0.02785
178.000	-0.28271	0.04178	0.28469	-0.05371
179.000	-0.27480	0.03979	0.38156	-0.03979
180.000	-0.26689	0.03780	0.28271	-0.00796
181.000	-0.26294	0.02984	0.27480	-0.08356
182.000	-0.30643	0.04377	0.29655	-0.05769
183.000	-0.24712	0.06963	0.25503	-0.02984
184.000	-0.26096	0.06565	0.30841	-0.04974
185.000	-0.27282	0.06963	0.34597	-0.00597
186.000	-0.23724	0.07560	0.26096	-0.04178
187.000	-0.26887	0.04377	0.33609	-0.08157
188.000	-0.28073	0.05769	0.29655	-0.01790
189.000	-0.27480	0.05968	0.28271	-0.01194
190.000	-0.26294	0.03979	0.27876	0.00995
191.000	-0.27480	0.00796	0.28666	-0.04775
192.000	-0.22735	0.03183	0.27876	-0.07361
193.000	-0.27282	0.07759	0.27282	-0.04775
194.000	-0.28469	0.05769	0.31236	-0.05769
195.000	-0.25108	0.06764	0.29062	-0.06366
196.000	-0.25305	0.03581	0.34004	-0.06764
197.000	-0.24910	0.08356	0.26294	-0.04576
198.000	-0.25701	0.03581	0.29457	-0.03581
199.000	-0.26294	0.00597	0.29457	-0.01790
200.000	-0.23329	0.02785	0.30446	-0.04775
201.000	-0.20956	0.04178	0.34202	-0.10146
202.000	-0.27480	0.06366	0.29062	-0.07361
203.000	-0.29457	0.01989	0.29259	-0.06366
204.000	-0.27282	0.05570	0.34993	-0.02785
205.000	-0.23724	0.10544	0.37760	-0.07361
206.000	-0.22735	0.06167	0.41516	-0.05172
207.000	-0.22735	0.09947	0.34795	-0.07958
208.000	-0.27678	0.09748	0.27085	-0.04974
209.000	-0.24712	0.08554	0.33609	0.00995
210.000	-0.21549	0.05172	0.30841	-0.02188
211.000	-0.19572	0.07361	0.33609	-0.10743
212.000	-0.20363	0.09350	0.28469	-0.03382
213.000	-0.17398	0.06167	0.26294	-0.06565
214.000	-0.20758	0.06366	0.35783	-0.11538
215.000	-0.18781	0.07759	0.30446	0.01393
216.000	-0.18584	0.06764	0.37563	-0.07759
217.000	-0.22142	0.11141	0.37760	-0.10743
218.000	-0.17793	0.05371	0.31632	-0.00796
219.000	-0.21352	0.05570	0.31236	-0.03780
220.000	-0.15816	0.05371	0.29457	-0.07162
221.000	-0.21154	0.06764	0.32620	-0.06963
222.000	-0.22735	0.02188	0.37563	-0.09947
223.000	-0.18979	0.06565	0.34004	-0.09151
224.000	-0.21154	0.04775	0.32422	-0.01393
225.000	-0.22340	0.04377	0.30643	-0.04974
226.000	-0.20363	0.08753	0.30841	-0.05570
227.000	-0.20561	0.07162	0.37563	-0.02188
228.000	-0.19572	0.09350	0.30248	-0.04377
229.000	-0.22538	0.07759	0.35190	-0.04775
230.000	-0.18386	0.09748	0.36772	0.00000
231.000	-0.18386	0.10345	0.33609	0.01393
232.000	-0.21549	0.10345	0.37365	-0.06565
233.000	-0.19177	0.08157	0.28469	-0.00199
234.000	-0.23724	0.06167	0.33806	-0.03979
235.000	-0.22142	0.09350	0.31434	0.01790
236.000	-0.22735	0.06565	0.30050	0.00000
237.000	-0.24119	0.06565	0.36969	-0.02387
238.000	-0.24317	0.06366	0.38156	-0.07958
239.000	-0.20165	0.08753	0.31236	-0.06764
240.000	-0.23724	0.08157	0.35190	-0.03581
241.000	-0.24910	0.10942	0.37365	0.00995
242.000	-0.17793	0.10942	0.32818	-0.04377
243.000	-0.18584	0.09549	0.28073	-0.06963
244.000	-0.15618	0.09549	0.23922	-0.01194
245.000	-0.19375	0.08555	0.30841	0.00796
246.000	-0.22538	0.06764	0.33411	-0.05371
247.000	-0.17595	0.12533	0.35190	-0.06764
248.000	-0.21154	0.13727	0.31434	-0.03780
249.000	-0.21352	0.09350	0.33411	-0.01790
250.000	-0.23526	0.09947	0.32818	-0.00796
251.000	-0.21352	0.05371	0.33806	-0.01393
252.000	-0.20165	0.05769	0.35783	0.06366
253.000	-0.19968	0.09748	0.28271	-0.06764
254.000	-0.22735	0.02586	0.27480	0.05769
255.000	-0.26096	0.07560	0.40726	-0.02188
256.000	-0.21154	0.08356	0.37365	-0.02387
257.000	-0.18386	0.12533	0.26096	-0.01194
258.000	-0.22142	0.06764	0.28864	0.04576
259.000	-0.20363	0.08157	0.37563	0.01393
260.000	-0.21154	0.07560	0.36179	0.03581
261.000	-0.25305	0.06764	0.34597	0.05769
262.000	-0.22142	0.10146	0.29457	-0.00398
263.000	-0.20956	0.08157	0.32818	-0.02984
264.000	-0.23131	0.05172	0.28271	-0.07162
265.000	-0.25899	0.00995	0.31236	-0.08753
266.000	-0.24712	0.08356	0.28469	-0.00398
267.000	-0.21549	0.02586	0.34795	0.00000
268.000	-0.26689	0.07361	0.35783	-0.00199
269.000	-0.24910	0.06565	0.31236	0.02984
270.000	-0.24712	0.05769	0.40330	0.01989
271.000	-0.23922	0.08356	0.29655	0.03979
272.000	-0.22538	0.05371	0.32422	0.00199
273.000	-0.20561	0.08157	0.38749	-0.02586
274.000	-0.20363	0.10544	0.34795	0.00796
275.000	-0.23922	0.09350	0.33411	-0.01989
276.000	-0.21945	0.04178	0.37365	-0.01989
277.000	-0.22538	0.06963	0.36179	-0.07759
278.000	-0.21549	0.08157	0.38551	-0.04377
279.000	-0.24119	0.04974	0.35388	-0.05371
280.000	-0.20165	0.06764	0.34993	-0.03581
281.000	-0.21747	0.06565	0.35981	0.03183
282.000	-0.25701	0.04576	0.29259	-0.02785
283.000	-0.18386	0.04775	0.35586	-0.03183
284.000	-0.22142	0.03780	0.30446	0.09549
285.000	-0.19770	0.04178	0.28271	-0.02387
286.000	-0.21352	0.04377	0.36574	-0.00199
287.000	-0.21747	0.04775	0.28469	0.05172
288.000	-0.19770	0.09947	0.34993	0.07560
289.000	-0.21945	0.07361	0.35981	0.02984
290.000	-0.19572	0.05173	0.35586	0.04178
291.000	-0.20758	0.06963	0.36574	0.01790
292.000	-0.20165	0.08157	0.34399	0.00796
293.000	-0.21154	0.08555	0.34795	0.05968
294.000	-0.24119	0.03382	0.39737	0.00597
295.000	-0.19770	0.06366	0.28271	0.06764
296.000	-0.18781	0.03382	0.37365	0.03979
297.000	-0.22538	0.10345	0.34795	-0.01393
298.000	-0.20561	0.10544	0.36969	-0.00597
299.000	-0.22933	0.08952	0.38749	-0.00597
300.000	-0.18979	0.04576	0.32027	0.09350
301.000	-0.20363	0.05570	0.31434	0.03780
302.000	-0.18781	0.07759	0.33806	0.03979
303.000	-0.18584	0.06764	0.31039	0.03183
304.000	-0.19770	0.03979	0.30248	-0.00597
305.000	-0.18781	0.08356	0.42505	0.00199
306.000	-0.21549	0.05371	0.37760	0.00597
307.000	-0.21154	0.09151	0.35586	0.08355
308.000	-0.19177	0.05371	0.31434	-0.02785
309.000	-0.21549	0.08952	0.35981	0.06963
310.000	-0.27282	0.03780	0.35586	0.00796
311.000	-0.17002	0.05371	0.38156	0.07958
312.000	-0.20956	0.10146	0.34004	0.04576
313.000	-0.22340	0.08753	0.34795	0.02984
314.000	-0.22735	0.04178	0.40528	-0.01194
315.000	-0.21352	0.04377	0.34597	-0.00199
316.000	-0.19770	0.07759	0.38551	0.02188
317.000	-0.20561	0.05769	0.37760	0.04973
318.000	-0.20956	0.05570	0.40133	0.08753
319.000	-0.20956	0.08952	0.41121	-0.02188
320.000	-0.23922	0.09350	0.33411	0.04377
321.000	-0.20758	0.11738	0.38156	0.07361
322.000	-0.25899	0.10146	0.33213	0.10743
323.000	-0.25305	0.08554	0.38946	0.06167
324.000	-0.20165	0.11738	0.40133	0.02984
325.000	-0.17002	0.09549	0.39342	0.02984
326.000	-0.20956	0.07958	0.40133	0.05968
327.000	-0.20956	0.09947	0.31632	-0.00398
328.000	-0.26096	0.07162	0.36574	0.08952
329.000	-0.25108	0.06764	0.43296	-0.06167
330.000	-0.21945	0.10743	0.41319	0.02785
331.000	-0.22340	0.08157	0.39144	0.02387
332.000	-0.23526	0.11539	0.32422	0.04576
333.000	-0.21747	0.08157	0.44482	0.04178
334.000	-0.21747	0.11141	0.49028	0.05172
335.000	-0.26689	0.05968	0.34795	0.00796
336.000	-0.22735	0.09151	0.37167	0.00398
337.000	-0.22142	0.05371	0.44284	0.06167
338.000	-0.23922	0.10146	0.36179	-0.01194
339.000	-0.19770	0.08356	0.37760	0.03979
340.000	-0.19770	0.09151	0.43296	0.07560
341.000	-0.19572	0.08356	0.38353	0.05371
342.000	-0.22538	0.09549	0.36969	0.02387
343.000	-0.21352	0.07560	0.40528	0.04973
344.000	-0.21352	0.09350	0.31632	0.00597
345.000	-0.18781	0.09549	0.41121	0.06565
346.000	-0.24712	0.13329	0.37167	0.05371
347.000	-0.23724	0.09549	0.36574	0.05172
348.000	-0.22340	0.09549	0.40923	0.01989
349.000	-0.21154	0.10146	0.38551	0.07560
350.000	-0.17398	0.13329	0.43098	0.02188
351.000	-0.19770	0.13528	0.39539	0.03382
352.000	-0.20956	0.11340	0.35388	0.00796
353.000	-0.20363	0.09947	0.34004	0.09350
354.000	-0.20956	0.08952	0.38749	-0.02586
355.000	-0.19375	0.07361	0.37365	0.04973
356.000	-0.17002	0.10345	0.37167	0.00597
357.000	-0.20561	0.09549	0.44482	0.07759
358.000	-0.19572	0.08753	0.39539	0.09549
359.000	-0.19375	0.09748	0.39737	0.02586
360.000	-0.22735	0.05769	0.35190	0.08554
361.000	-0.17595	0.08356	0.36179	0.00000
362.000	-0.22538	0.10345	0.37365	0.00796
363.000	-0.19968	0.09151	0.38156	0.00199
364.000	-0.20561	0.10146	0.40330	0.00199
365.000	-0.18781	0.09151	0.35981	0.01194
366.000	-0.17793	0.12334	0.39144	0.06764
367.000	-0.17793	0.12732	0.40923	0.01592
368.000	-0.15618	0.09549	0.41319	0.03780
369.000	-0.19770	0.07958	0.41912	0.03183
370.000	-0.15223	0.10146	0.32225	0.04178
371.000	-0.18584	0.08157	0.36772	0.03183
372.000	-0.21352	0.07162	0.45272	-0.00597
373.000	-0.17002	0.10544	0.45865	0.05570
374.000	-0.19177	0.05371	0.36969	0.08355
375.000	-0.17398	0.05371	0.40528	0.08355
376.000	-0.19375	0.08356	0.37958	0.05371
377.000	-0.15025	0.05371	0.38749	0.08753
378.000	-0.12653	0.09350	0.38156	0.05570
379.000	-0.17002	0.04377	0.37563	0.08355
380.000	-0.21747	0.01989	0.38946	0.03581
381.000	-0.17398	0.10544	0.38551	0.00597
382.000	-0.19968	0.04775	0.38946	0.03979
383.000	-0.18584	0.10345	0.44679	0.03979
384.000	-0.19770	0.05371	0.35981	0.00995
385.000	-0.13641	0.08753	0.40923	0.02387
386.000	-0.13048	0.07162	0.40923	0.05769
387.000	-0.16607	0.10146	0.42307	0.02387
388.000	-0.12455	0.04178	0.45272	0.03979
389.000	-0.14827	0.06764	0.43691	0.03780
390.000	-0.15421	0.07958	0.47447	-0.04377
391.000	-0.14234	0.07958	0.38749	0.07361
392.000	-0.16409	0.05173	0.42307	0.05968
393.000	-0.15025	0.02188	0.39737	0.00597
394.000	-0.14432	0.06963	0.41714	0.03581
395.000	-0.13839	0.07560	0.35783	0.00995
396.000	-0.13246	0.10345	0.38946	0.02785
397.000	-0.17002	0.06565	0.38946	0.04178
398.000	-0.14234	0.06963	0.33411	0.08157
399.000	-0.16409	0.06366	0.41516	-0.00597
400.000	-0.14630	0.06366	0.33016	0.11340
401.000	-0.16014	0.06963	0.47249	0.04576
402.000	-0.12653	0.03979	0.42307	0.05769
403.000	-0.12653	0.05968	0.43098	0.11737
404.000	-0.15816	0.06764	0.33806	0.05968
405.000	-0.15816	0.06565	0.50412	0.01790
406.000	-0.15816	0.03979	0.43493	0.08554
407.000	-0.18584	0.04178	0.43493	0.04775
408.000	-0.19572	0.07162	0.49028	0.08355
409.000	-0.17595	0.04775	0.39342	0.06764
410.000	-0.16014	0.07361	0.40923	0.04973
411.000	-0.11664	0.10942	0.39539	-0.01790
412.000	-0.17991	0.05173	0.42109	0.01194
413.000	-0.12060	0.11340	0.39539	-0.01393
414.000	-0.15618	0.06565	0.46459	-0.00597
415.000	-0.16211	0.10146	0.41516	0.03183
416.000	-0.14037	0.07361	0.46656	0.00199
417.000	-0.14234	0.08157	0.32818	-0.04178
418.000	-0.15618	0.03581	0.42307	-0.00796
419.000	-0.17200	0.05371	0.53575	0.02188
420.000	-0.17002	0.09947	0.39342	0.05570
421.000	-0.14432	0.05371	0.57133	0.00398
422.000	-0.13246	0.11539	0.43098	-0.01393
423.000	-0.15618	0.12533	0.38551	-0.03382
424.000	-0.15421	0.05173	0.41319	-0.00597
425.000	-0.15223	0.10146	0.43098	0.05172
426.000	-0.10874	0.05769	0.43296	-0.01592
427.000	-0.17200	0.08555	0.43098	-0.00597
428.000	-0.14827	0.06565	0.50215	0.04377
429.000	-0.16409	0.04178	0.39935	0.05968
430.000	-0.13048	0.09947	0.41121	0.00597
431.000	-0.13048	0.11340	0.49226	-0.00398
432.000	-0.15025	0.09549	0.42505	0.01592
433.000	-0.14432	0.06963	0.47447	-0.01591
434.000	-0.11467	0.09151	0.48633	0.00199
435.000	-0.13246	0.04377	0.43691	0.02387
436.000	-0.12850	0.03780	0.49424	0.01989
437.000	-0.13246	0.06167	0.53180	-0.01393
438.000	-0.15618	0.07162	0.47447	0.03581
439.000	-0.13048	0.06167	0.44877	-0.00796
440.000	-0.13048	0.05570	0.41912	0.05968
441.000	-0.12850	0.14324	0.46459	0.03183
442.000	-0.12455	0.07560	0.47842	0.01989
443.000	-0.15618	0.08753	0.47052	-0.01989
444.000	-0.12060	0.11539	0.44284	-0.01592
445.000	-0.12850	0.06167	0.47842	-0.00796
446.000	-0.17002	0.07759	0.43098	-0.01989
447.000	-0.13048	0.06963	0.39935	0.04178
448.000	-0.12257	0.07560	0.50412	-0.00597
449.000	-0.11071	0.09350	0.48435	-0.05570
450.000	-0.14827	0.09549	0.42109	0.02188
451.000	-0.08897	0.11141	0.47645	-0.05172
452.000	-0.12455	0.09748	0.50808	0.04774
453.000	-0.13839	0.04178	0.47842	0.03382
454.000	-0.14827	0.09151	0.48238	-0.06565
455.000	-0.17398	0.09748	0.41912	0.01790
456.000	-0.20956	0.05570	0.37958	0.03979
457.000	-0.17200	0.11340	0.44482	-0.05769
458.000	-0.17200	0.08356	0.44284	-0.01989
459.000	-0.13246	0.08555	0.53378	-0.06366
460.000	-0.11862	0.07759	0.51005	-0.03581
461.000	-0.11269	0.10146	0.51598	-0.03979
462.000	-0.10676	0.12533	0.47842	-0.03780
463.000	-0.11862	0.08555	0.46656	-0.02586
464.000	-0.13246	0.10544	0.52587	-0.01989
465.000	-0.11071	0.11937	0.47447	-0.00995
466.000	-0.13246	0.11937	0.41319	-0.06167
467.000	-0.16211	0.08952	0.54366	-0.01194
468.000	-0.13641	0.13329	0.43493	-0.04377
469.000	-0.13444	0.03979	0.44482	0.01194
470.000	-0.18979	0.08952	0.52784	0.00398
471.000	-0.14432	0.08753	0.47052	-0.05570
472.000	-0.17398	0.10146	0.51796	-0.06764
473.000	-0.16804	0.09350	0.45668	-0.02387
474.000	-0.15421	0.08157	0.53773	-0.04178
475.000	-0.17200	0.08356	0.51401	-0.07162
476.000	-0.19375	0.08952	0.46459	-0.06565
477.000	-0.15618	0.10345	0.49819	-0.04178
478.000	-0.12060	0.08356	0.42505	0.00995
479.000	-0.14432	0.08555	0.43296	-0.00398
480.000	-0.17595	0.06963	0.48040	-0.03780
481.000	-0.14432	0.06764	0.49622	-0.06565
482.000	-0.15421	0.07560	0.45865	-0.04973
483.000	-0.11467	0.11141	0.46459	-0.00796
484.000	-0.16014	0.12135	0.53971	0.01194
485.000	-0.16211	0.08952	0.45075	0.03780
486.000	-0.14827	0.06167	0.44877	0.00995
487.000	-0.15223	0.08555	0.40726	-0.01790
488.000	-0.15816	0.07958	0.45272	-0.00597
489.000	-0.15816	0.11937	0.41319	-0.04973
490.000	-0.16014	0.09748	0.47249	-0.03183
491.000	-0.16409	0.08952	0.43296	-0.05172
492.000	-0.15421	0.06366	0.48831	-0.00597
493.000	-0.16607	0.14324	0.45470	0.02586
494.000	-0.12653	0.08753	0.42702	0.01989
495.000	-0.15816	0.08555	0.47447	-0.05968
496.000	-0.14432	0.10345	0.40726	-0.03780
497.000	-0.12850	0.09350	0.45865	0.00796
498.000	-0.11071	0.06565	0.39144	-0.03780
499.000	-0.18584	0.00796	0.46063	-0.00398
500.000	-0.14630	0.07361	0.44482	-0.04576
501.000	-0.15223	0.08356	0.47645	0.03581
502.000	-0.14630	0.04775	0.48040	-0.03183
503.000	-0.19968	0.07361	0.48238	0.00398
504.000	-0.16409	0.01790	0.42109	0.02387
505.000	-0.16409	0.04775	0.48238	-0.02984
506.000	-0.15421	0.03581	0.42900	-0.06167
507.000	-0.17398	0.03979	0.44679	-0.00597
508.000	-0.17793	0.05173	0.49226	-0.02785
509.000	-0.17398	0.04377	0.56343	-0.03183
510.000	-0.18386	0.02586	0.46459	0.00398
511.000	-0.16804	0.02785	0.49424	-0.00199
512.000	-0.12257	0.07162	0.51994	-0.03979
513.000	-0.11664	0.06565	0.47052	0.00995
514.000	-0.16804	0.08356	0.44877	0.03382
515.000	-0.14827	0.06366	0.44482	-0.00398
516.000	-0.14827	0.06167	0.44877	-0.02188
517.000	-0.12850	0.05570	0.53378	-0.00199
518.000	-0.12850	0.05968	0.46063	-0.01393
519.000	-0.12257	0.03382	0.52191	0.00796
520.000	-0.12653	0.09151	0.46063	-0.04377
521.000	-0.16211	0.02785	0.52982	-0.02785
522.000	-0.13048	0.09549	0.50215	0.01393
523.000	-0.11071	0.07759	0.50808	0.01194
524.000	-0.13246	0.05968	0.44679	0.02785
525.000	-0.10478	0.04377	0.50017	0.01591
526.000	-0.11862	0.04974	0.43098	0.03581
527.000	-0.11071	0.07162	0.53773	0.02984
528.000	-0.11467	0.02387	0.47447	-0.01591
529.000	-0.14234	0.02188	0.54168	0.00000
530.000	-0.13246	0.05570	0.47645	0.00995
531.000	-0.14037	0.03183	0.49622	0.02188
532.000	-0.11467	0.03780	0.49226	0.05570
533.000	-0.16014	0.03382	0.48238	0.03382
534.000	-0.15025	0.01790	0.47052	0.03581
535.000	-0.14630	0.00796	0.42505	0.00199
536.000	-0.17002	0.02188	0.52982	0.04576
537.000	-0.17793	-0.00796	0.51005	0.05968
538.000	-0.10676	0.01194	0.56540	0.00199
539.000	-0.17002	-0.02387	0.51203	-0.02586
540.000	-0.18584	0.00199	0.46854	-0.05172
541.000	-0.14037	-0.02188	0.46656	0.03183
542.000	-0.12060	-0.00398	0.52389	-0.04973
543.000	-0.17991	0.00597	0.46261	-0.02785
544.000	-0.16409	-0.00199	0.55157	0.00199
545.000	-0.14037	0.03979	0.46656	-0.01194
546.000	-0.15618	-0.01790	0.39342	0.08355
547.000	-0.16211	-0.00796	0.49226	0.02387
548.000	-0.15816	-0.01989	0.51005	-0.01790
549.000	-0.17398	-0.03183	0.48238	0.00199
550.000	-0.16211	-0.02188	0.50215	0.02984
551.000	-0.16804	0.01790	0.55552	0.04575
552.000	-0.18979	-0.03183	0.45470	0.00000
553.000	-0.17991	-0.05173	0.42505	0.03183
554.000	-0.22340	0.00796	0.47249	0.06167
555.000	-0.17991	-0.00199	0.45075	0.02188
556.000	-0.18188	-0.00995	0.47842	0.02785
557.000	-0.18979	-0.01194	0.52389	0.01194
558.000	-0.17200	-0.01393	0.43889	0.06963
559.000	-0.19375	-0.03382	0.47249	0.04576
560.000	-0.20561	-0.00796	0.44086	0.03183
561.000	-0.18188	0.00199	0.49622	0.04377
562.000	-0.24317	-0.01790	0.48435	-0.00199
563.000	-0.17793	-0.02586	0.50610	0.01790
564.000	-0.22933	-0.01393	0.41121	0.05968
565.000	-0.19572	-0.01989	0.42109	0.08355
566.000	-0.18979	-0.01989	0.44679	0.06764
567.000	-0.19770	0.01790	0.49819	0.05172
568.000	-0.20165	-0.02785	0.50215	0.00398
569.000	-0.21945	-0.02188	0.47842	0.01790
570.000	-0.18584	-0.04178	0.49424	0.03183
571.000	-0.19968	-0.03382	0.46063	0.02387
572.000	-0.23922	-0.06565	0.53180	0.07361
573.000	-0.20363	-0.01393	0.45272	0.06764
574.000	-0.17793	-0.04576	0.44086	0.07361
575.000	-0.21549	-0.05172	0.44482	0.00000
576.000	-0.20363	-0.02586	0.45272	-0.00398
577.000	-0.23131	-0.06167	0.47052	0.00000
578.000	-0.23724	-0.07361	0.48238	-0.00995
579.000	-0.23131	-0.06366	0.45865	0.06764
580.000	-0.21154	-0.04974	0.46063	0.10544
581.000	-0.22340	-0.06366	0.47447	0.12135
582.000	-0.20956	-0.06167	0.53575	0.01790
583.000	-0.19968	-0.07759	0.50610	0.07957
584.000	-0.20363	-0.06963	0.47249	0.07162
585.000	-0.17595	-0.07361	0.45272	0.09748
586.000	-0.17398	-0.08952	0.52587	0.11140
587.000	-0.11269	-0.09350	0.52982	0.10146
588.000	-0.16014	-0.07560	0.50610	0.11538
589.000	-0.23526	-0.08952	0.49028	0.08156
590.000	-0.15421	-0.10345	0.47249	0.07361
591.000	-0.16804	-0.06963	0.51401	0.04973
592.000	-0.16211	-0.06764	0.46063	0.01393
593.000	-0.17398	-0.06565	0.53773	0.14522
594.000	-0.15816	-0.02387	0.49819	0.07560
595.000	-0.21352	-0.09549	0.45272	0.02984
596.000	-0.14037	-0.04576	0.49028	0.08156
597.000	-0.17793	-0.10146	0.61680	0.01989
598.000	-0.15223	-0.10345	0.54168	0.06764
599.000	-0.18979	-0.11141	0.49819	0.06565
600.000	-0.17398	-0.11738	0.54564	0.10345
601.000	-0.15816	-0.10345	0.55947	0.00398
602.000	-0.20165	-0.10544	0.53971	0.08156
603.000	-0.19572	-0.11340	0.53180	-0.01393
604.000	-0.21549	-0.07361	0.51598	0.06167
605.000	-0.17991	-0.11937	0.41714	0.09549
606.000	-0.21747	-0.08157	0.47052	0.05968
607.000	-0.18386	-0.08555	0.55354	0.06366
608.000	-0.18386	-0.05570	0.52784	0.07560
609.000	-0.13444	-0.09350	0.50017	0.03780
610.000	-0.18781	-0.07759	0.51796	0.06366
611.000	-0.19177	-0.09350	0.49226	0.02984
612.000	-0.17200	-0.11340	0.44877	0.01790
613.000	-0.17793	-0.08952	0.40330	0.05371
614.000	-0.16409	-0.07361	0.47842	0.05371
615.000	-0.17991	-0.07361	0.49622	0.04377
616.000	-0.17595	-0.06366	0.54366	0.05371
617.000	-0.19770	-0.09947	0.59506	0.07758
618.000	-0.16409	-0.10146	0.53971	0.06963
619.000	-0.16409	-0.11539	0.49226	0.01989
620.000	-0.16607	-0.04775	0.53180	0.06565
621.000	-0.12653	-0.05968	0.55354	0.01194
622.000	-0.19177	-0.07361	0.58517	-0.02586
623.000	-0.15421	-0.10146	0.57727	0.01989
624.000	-0.14037	-0.07361	0.49819	0.01989
625.000	-0.13444	-0.06565	0.48435	0.01790
626.000	-0.14037	-0.10544	0.44482	0.01790
627.000	-0.15025	-0.11738	0.48831	0.03780
628.000	-0.16409	-0.06963	0.54761	-0.00597
629.000	-0.13444	-0.10146	0.55157	0.05570
630.000	-0.13246	-0.08952	0.51005	0.02785
631.000	-0.16211	-0.10942	0.53575	0.08554
632.000	-0.19572	-0.06963	0.54366	0.00597
633.000	-0.14037	-0.10942	0.52191	0.07957
634.000	-0.15223	-0.08157	0.53971	0.16710
635.000	-0.14827	-0.11738	0.43493	0.07759
636.000	-0.17398	-0.06764	0.52784	0.08355
637.000	-0.17398	-0.09947	0.60296	0.09947
638.000	-0.16409	-0.11937	0.50610	0.05371
639.000	-0.21352	-0.11340	0.45470	0.06565
640.000	-0.20165	-0.11340	0.53773	0.10941
641.000	-0.20758	-0.15319	0.50412	0.12135
642.000	-0.20165	-0.12135	0.47249	0.09549
643.000	-0.17398	-0.12732	0.45075	0.09350
644.000	-0.21549	-0.10146	0.53773	0.11538
645.000	-0.17991	-0.11340	0.53180	0.09350
646.000	-0.17398	-0.11340	0.50808	0.13528
647.000	-0.20165	-0.12135	0.49226	0.04973
648.000	-0.17398	-0.13329	0.48238	0.03780
649.000	-0.17398	-0.13130	0.48040	0.07361
650.000	-0.20363	-0.15319	0.53575	0.09350
651.000	-0.18188	-0.14125	0.45865	0.09748
652.000	-0.18188	-0.08356	0.53180	0.07162
653.000	-0.21747	-0.10146	0.44284	0.15517
654.000	-0.21154	-0.13926	0.49622	0.06167
655.000	-0.18584	-0.10544	0.49424	0.13329
656.000	-0.17200	-0.16313	0.45668	0.15517
657.000	-0.20561	-0.13528	0.51796	0.12334
658.000	-0.20165	-0.11937	0.51796	0.07957
659.000	-0.18979	-0.14125	0.50610	0.08554
660.000	-0.23526	-0.11340	0.46063	0.09151
661.000	-0.19770	-0.11141	0.49028	0.03581
662.000	-0.17002	-0.12334	0.49819	0.01790
663.000	-0.21154	-0.12334	0.51005	0.02387
664.000	-0.19375	-0.11937	0.55947	0.01393
665.000	-0.17398	-0.15120	0.45668	0.16910
666.000	-0.18386	-0.10544	0.49424	0.07957
667.000	-0.15816	-0.12334	0.48831	0.09350
668.000	-0.19572	-0.14125	0.50412	0.06366
669.000	-0.17398	-0.09151	0.46459	0.10942
670.000	-0.20363	-0.16313	0.50017	0.10743
671.000	-0.20363	-0.13926	0.51796	0.08156
672.000	-0.18979	-0.13727	0.58715	0.08753
673.000	-0.18584	-0.11539	0.56540	0.08753
674.000	-0.21945	-0.16114	0.56145	0.07162
675.000	-0.21549	-0.16910	0.53971	0.16512
676.000	-0.21154	-0.16114	0.56936	0.10941
677.000	-0.22933	-0.14324	0.46459	0.10544
678.000	-0.20561	-0.13130	0.54168	0.07162
679.000	-0.19375	-0.14324	0.50215	0.04178
680.000	-0.17991	-0.14722	0.56540	0.10146
681.000	-0.19375	-0.13329	0.49819	0.09748
682.000	-0.21352	-0.12334	0.51203	0.10544
683.000	-0.18979	-0.11340	0.55947	0.03382
684.000	-0.17002	-0.17507	0.47052	0.06764
685.000	-0.19375	-0.10345	0.54564	0.13925
686.000	-0.22142	-0.13130	0.44679	0.09748
687.000	-0.19572	-0.10743	0.44679	0.08554
688.000	-0.23131	-0.16512	0.46063	0.06366
689.000	-0.18188	-0.13926	0.51203	0.11737
690.000	-0.17991	-0.14523	0.48238	0.13329
691.000	-0.19375	-0.14722	0.47249	0.15318
692.000	-0.20758	-0.16512	0.55947	0.12334
693.000	-0.22142	-0.13130	0.54761	0.07957
694.000	-0.17793	-0.16512	0.53773	0.07758
695.000	-0.20956	-0.16910	0.48633	0.05570
696.000	-0.19770	-0.16512	0.47842	0.04576
697.000	-0.23526	-0.16910	0.56145	0.16114
698.000	-0.19770	-0.17109	0.53971	0.13528
699.000	-0.26096	-0.16313	0.47842	0.14522
700.000	-0.18979	-0.15120	0.52982	0.08355
701.000	-0.24119	-0.15517	0.52587	0.08952
702.000	-0.25503	-0.17706	0.49226	0.10941
703.000	-0.21154	-0.15517	0.53180	0.12334
704.000	-0.24119	-0.19297	0.50808	0.12135
705.000	-0.22933	-0.15120	0.44284	0.09947
706.000	-0.20165	-0.17706	0.46854	0.14522
707.000	-0.20956	-0.13528	0.52784	0.12135
708.000	-0.23526	-0.16114	0.51401	0.07758
709.000	-0.23131	-0.17507	0.53971	0.07560
710.000	-0.20165	-0.17706	0.51203	0.10345
711.000	-0.23724	-0.19695	0.50017	0.11339
712.000	-0.23329	-0.13926	0.50017	0.07162
713.000	-0.21747	-0.16313	0.54959	0.05570
714.000	-0.26096	-0.16910	0.49226	0.08554
715.000	-0.25701	-0.16711	0.56145	0.09350
716.000	-0.24119	-0.19894	0.48831	0.17307
717.000	-0.27282	-0.15120	0.55750	0.13925
718.000	-0.23131	-0.14523	0.44877	0.09350
719.000	-0.23724	-0.18104	0.52389	0.14124
720.000	-0.25108	-0.20889	0.47842	0.10146
721.000	-0.27876	-0.14125	0.51005	0.08753
722.000	-0.22933	-0.16711	0.48633	0.11140
723.000	-0.25503	-0.18502	0.46261	0.15119
724.000	-0.25108	-0.18502	0.50215	0.08554
725.000	-0.28666	-0.18501	0.56738	0.03382
726.000	-0.23922	-0.20292	0.47447	0.03979
727.000	-0.26689	-0.18501	0.51796	0.11538
728.000	-0.24910	-0.18899	0.53575	0.07957
729.000	-0.23724	-0.17109	0.52784	0.12732
730.000	-0.24910	-0.18104	0.49226	0.07361
731.000	-0.24910	-0.14324	0.52784	0.06366
732.000	-0.27282	-0.16313	0.49424	0.03780
733.000	-0.24712	-0.13727	0.51203	0.08952
734.000	-0.27480	-0.19894	0.55750	0.13329
735.000	-0.22340	-0.18104	0.51598	0.11538
736.000	-0.24317	-0.10146	0.45272	0.12135
737.000	-0.25305	-0.17109	0.52389	0.08355
738.000	-0.24910	-0.15915	0.42702	0.07162
739.000	-0.26096	-0.18303	0.46261	0.05968
740.000	-0.22735	-0.13329	0.55552	0.08753
741.000	-0.27085	-0.12135	0.45272	0.09947
742.000	-0.23922	-0.19098	0.52982	0.04178
743.000	-0.19177	-0.19098	0.50808	0.10743
744.000	-0.21549	-0.21486	0.50610	0.08156
745.000	-0.24712	-0.20491	0.53575	0.12135
746.000	-0.20363	-0.22679	0.53773	0.04973
747.000	-0.23131	-0.22480	0.48831	0.07162
748.000	-0.20561	-0.21287	0.52191	0.06167
749.000	-0.23329	-0.19894	0.56145	0.05570
750.000	-0.22735	-0.17905	0.47842	0.12135
751.000	-0.26096	-0.22878	0.52389	0.07560
752.000	-0.24119	-0.16910	0.57727	0.07957
753.000	-0.22933	-0.17308	0.55157	0.09350
754.000	-0.23724	-0.19695	0.49226	0.13130
755.000	-0.27282	-0.19894	0.55552	0.07957
756.000	-0.21549	-0.20690	0.54761	0.06764
757.000	-0.26689	-0.18700	0.53971	0.12334
758.000	-0.24712	-0.19894	0.57727	0.11140
759.000	-0.28073	-0.23276	0.52389	0.03382
760.000	-0.26096	-0.21287	0.50610	0.04377
761.000	-0.23724	-0.19695	0.52784	0.02188
762.000	-0.28469	-0.23077	0.47645	0.09151
763.000	-0.23724	-0.22878	0.55552	0.01591
764.000	-0.27876	-0.23475	0.46656	0.08952
765.000	-0.27085	-0.22082	0.52191	0.05968
766.000	-0.24910	-0.22082	0.46459	0.12931
767.000	-0.26294	-0.24470	0.56145	0.04575
768.000	-0.25305	-0.23475	0.51203	0.08554
769.000	-0.25701	-0.22082	0.49819	0.04576
770.000	-0.24910	-0.25265	0.47447	0.08753
771.000	-0.23922	-0.23077	0.52982	0.13130
772.000	-0.24317	-0.23873	0.50808	0.10345
773.000	-0.23131	-0.20292	0.49819	0.05968
774.000	-0.23329	-0.20889	0.51598	-0.00199
775.000	-0.23329	-0.21685	0.51994	0.11140
776.000	-0.21154	-0.25663	0.56540	0.05570
777.000	-0.24119	-0.21884	0.50412	0.07957
778.000	-0.18979	-0.17706	0.51598	0.06963
779.000	-0.19177	-0.18502	0.51796	0.10941
780.000	-0.21154	-0.19297	0.53575	0.06963
781.000	-0.15421	-0.20889	0.46854	0.10942
782.000	-0.17595	-0.23276	0.55750	0.07162
783.000	-0.20165	-0.25266	0.45668	0.10942
784.000	-0.21352	-0.17308	0.49226	0.07957
785.000	-0.15025	-0.18701	0.50412	0.04774
786.000	-0.20165	-0.18899	0.50610	0.09748
787.000	-0.20165	-0.15915	0.57924	0.09748
788.000	-0.18781	-0.22083	0.50610	0.09549
789.000	-0.17595	-0.21685	0.54168	0.07560
790.000	-0.19968	-0.22480	0.53773	0.10544
791.000	-0.22735	-0.22082	0.55157	0.05968
792.000	-0.20956	-0.23276	0.48238	0.05769
793.000	-0.19177	-0.17706	0.59308	0.05968
794.000	-0.20165	-0.20093	0.50412	0.11339
795.000	-0.21747	-0.19297	0.49819	0.07957
796.000	-0.18979	-0.25663	0.54959	0.05172
797.000	-0.19177	-0.21287	0.51598	0.08952
798.000	-0.17595	-0.20690	0.50808	0.05968
799.000	-0.18188	-0.21486	0.52389	0.13329
800.000	-0.20758	-0.20690	0.50412	0.12732
801.000	-0.20165	-0.21884	0.46459	0.09151
802.000	-0.15025	-0.21287	0.53773	0.07560
803.000	-0.16211	-0.20093	0.49622	0.13727
804.000	-0.16607	-0.22480	0.51994	0.09748
805.000	-0.14234	-0.18701	0.49622	0.11936
806.000	-0.14432	-0.21088	0.55354	0.17904
807.000	-0.17793	-0.22878	0.55750	0.13925
808.000	-0.18188	-0.21884	0.52587	0.09350
809.000	-0.14432	-0.19695	0.54959	0.09350
810.000	-0.13839	-0.16910	0.48831	-0.00199
811.000	-0.13641	-0.19695	0.55750	0.08554
812.000	-0.15618	-0.21685	0.46656	0.06366
813.000	-0.11269	-0.19496	0.54761	0.06764
814.000	-0.18584	-0.18104	0.45470	0.12334
815.000	-0.15025	-0.15716	0.55947	0.01790
816.000	-0.17002	-0.15915	0.52784	0.11140
817.000	-0.15025	-0.19297	0.47447	0.08156
818.000	-0.13839	-0.15518	0.49819	0.07162
819.000	-0.17002	-0.18104	0.51401	0.13329
820.000	-0.14234	-0.14523	0.51994	0.12135
821.000	-0.10676	-0.15120	0.51598	0.12135
822.000	-0.15421	-0.16313	0.50808	0.08355
823.000	-0.14630	-0.14921	0.53378	0.06764
824.000	-0.15025	-0.15915	0.51401	0.06565
825.000	-0.15421	-0.16711	0.53773	0.13925
826.000	-0.12850	-0.17507	0.63657	0.12135
827.000	-0.17002	-0.16313	0.54564	0.13130
828.000	-0.15816	-0.20292	0.51401	0.12732
829.000	-0.11269	-0.17109	0.51796	0.16114
830.000	-0.13641	-0.17706	0.48040	0.13528
831.000	-0.16014	-0.15120	0.47249	0.13528
832.000	-0.11664	-0.18104	0.50808	0.06963
833.000	-0.19177	-0.22480	0.46063	0.15318
834.000	-0.11269	-0.17507	0.56540	0.08753
835.000	-0.10083	-0.18303	0.51994	0.15318
836.000	-0.12257	-0.15518	0.48238	0.19894
837.000	-0.12060	-0.15319	0.53971	0.07957
838.000	-0.11862	-0.15518	0.50610	0.15119
839.000	-0.15223	-0.15518	0.49622	0.18103
840.000	-0.13839	-0.17507	0.50412	0.17108
841.000	-0.12850	-0.19098	0.49622	0.17108
842.000	-0.14037	-0.14324	0.46854	0.22480
843.000	-0.11862	-0.13926	0.47645	0.12334
844.000	-0.12455	-0.14921	0.47447	0.15517
845.000	-0.13839	-0.13727	0.44482	0.19098
846.000	-0.15223	-0.11738	0.50017	0.18103
847.000	-0.12850	-0.09947	0.37365	0.13329
848.000	-0.10478	-0.12136	0.50017	0.16711
849.000	-0.10083	-0.18303	0.55552	0.16909
850.000	-0.07513	-0.20690	0.56936	0.17904
851.000	0.07315	-0.24072	0.69587	0.14124
852.000	0.22735	-0.25067	0.84214	0.07559
853.000	0.39342	-0.41379	0.99631	-0.08951
854.000	0.53378	-0.51125	1.22753	-0.21680
855.000	0.70773	-0.60671	1.39549	-0.38185
856.000	0.89749	-0.80358	1.60886	-0.55681
857.000	1.06746	-1.01234	1.71553	-0.69198
858.000	1.18406	-1.26282	1.92685	-0.85491
859.000	1.28088	-1.44764	2.08087	-1.22847
860.000	1.36980	-1.66024	2.17366	-1.39133
861.000	1.40339	-1.87282	2.34539	-1.62556
862.000	1.42908	-2.03371	2.40263	-1.91145
863.000	1.47452	-2.19851	2.45196	-2.17341
864.000	1.45871	-2.37127	2.39868	-2.39775
865.000	1.47649	-2.53801	2.42236	-2.58816
866.000	1.51206	-2.63521	2.44802	-2.77255
867.000	1.50810	-2.78404	2.37894	-2.93330
868.000	1.48242	-2.91898	2.39868	-3.10174
869.000	1.46464	-2.98049	2.36513	-3.15335
870.000	1.49230	-3.04987	2.31579	-3.33971
871.000	1.46859	-3.03800	2.25854	-3.32400
872.000	1.48045	-3.15498	2.24867	-3.34977
873.000	1.50613	-3.18072	2.33947	-3.38918
874.000	1.52589	-3.19655	2.20919	-3.28250
875.000	1.55354	-3.21435	2.24670	-3.27449
876.000	1.57132	-3.19846	2.23288	-3.20318
877.000	1.57725	-3.16475	2.21906	-3.17547
878.000	1.57923	-3.16871	2.20327	-3.11604
879.000	1.63651	-3.11906	2.22301	-3.15366
880.000	1.65232	-3.06550	2.26447	-3.03068
881.000	1.64837	-3.03576	2.23486	-2.95541
882.000	1.63256	-2.95645	2.29802	-2.90571
883.000	1.62269	-2.91878	2.20722	-2.78691
884.000	1.61281	-2.83350	2.25460	-2.80863
885.000	1.62071	-2.76405	2.28420	-2.79271
886.000	1.61873	-2.71445	2.22696	-2.73927
887.000	1.60886	-2.69462	2.27828	-2.72133
888.000	1.64244	-2.69656	2.30394	-2.76094
889.000	1.63059	-2.64697	2.24670	-2.65990
890.000	1.66614	-2.62907	2.21906	-2.63019
891.000	1.66219	-2.63899	2.34737	-2.70136
892.000	1.70367	-2.66473	2.17761	-2.67986
893.000	1.70565	-2.63893	2.29407	-2.74708
894.000	1.72540	-2.67859	2.32565	-2.76487
895.000	1.73923	-2.70040	2.31579	-2.86800
896.000	1.75305	-2.73807	2.27236	-2.81455
897.000	1.79256	-2.75389	2.25065	-2.82847
898.000	1.81626	-2.78162	2.29605	-2.94735
899.000	1.78071	-2.80945	2.27631	-2.99695
900.000	1.79453	-2.81736	2.33355	-3.00873
901.000	1.81033	-2.84709	2.37500	-3.04234
902.000	1.81231	-2.88874	2.34144	-3.02259
903.000	1.80243	-2.91851	2.31579	-3.06030
904.000	1.80243	-2.91653	2.28618	-3.09605
905.000	1.79058	-2.95819	2.36908	-3.02253
906.000	1.82416	-2.94822	2.27236	-3.17139
907.000	1.81033	-2.99981	2.31381	-3.14157
908.000	1.80836	-2.98791	2.18156	-3.12005
909.000	1.80441	-2.93239	2.28420	-3.13767
910.000	1.83008	-3.00969	2.33355	-3.10189
911.000	1.84193	-3.00570	2.32171	-3.14552
912.000	1.84193	-3.00769	2.31184	-3.20301
913.000	1.84786	-3.02354	2.25460	-3.14566
914.000	1.78663	-2.96415	2.30986	-3.18518
915.000	1.83403	-3.00572	2.31973	-3.12967
916.000	1.86563	-2.97988	2.29605	-3.06629
917.000	1.83206	-3.00572	2.28815	-3.18325
918.000	1.80441	-2.96214	2.29802	-3.14161
919.000	1.84391	-2.93233	2.28026	-3.15354
920.000	1.82416	-2.93037	2.27433	-3.17733
921.000	1.83206	-2.89863	2.26841	-3.05446
922.000	1.84391	-2.91051	2.26447	-3.15952
923.000	1.85576	-2.89661	2.24867	-3.03270
924.000	1.83206	-2.89070	2.22893	-3.13185
925.000	1.86168	-2.79346	2.28026	-2.99893
926.000	1.80836	-2.80544	2.25854	-2.99897
927.000	1.85971	-2.80338	2.30394	-3.11781
928.000	1.82811	-2.78161	2.23683	-3.08822
929.000	1.86958	-2.74385	2.27828	-3.03263
930.000	1.83403	-2.71811	2.22499	-3.03274
931.000	1.87156	-2.68830	2.27236	-3.05643
932.000	1.83403	-2.74192	2.29407	-3.08215
933.000	1.87156	-2.68433	2.33552	-3.01864
934.000	1.86958	-2.66449	2.28026	-3.08417
935.000	1.86563	-2.69227	2.26841	-3.05644
936.000	1.88341	-2.74780	2.24078	-3.08227
937.000	1.87551	-2.73987	2.26249	-3.10403
938.000	1.87156	-2.80534	2.32763	-3.13361
939.000	1.80836	-2.84908	2.31184	-3.10590
940.000	1.82021	-2.87881	2.31579	-3.11382
941.000	1.83008	-2.91053	2.20130	-3.08037
942.000	1.82416	-2.92046	2.33355	-3.15342
943.000	1.86563	-2.95014	2.31579	-3.09995
944.000	1.80243	-2.97999	2.17761	-3.15177
945.000	1.84588	-2.97793	2.24275	-3.19722
946.000	1.81823	-2.95220	2.25262	-3.09414
947.000	1.84391	-2.91051	2.28618	-3.09406
948.000	1.85576	-2.94619	2.26644	-3.07627
949.000	1.85971	-2.89065	2.21709	-3.06448
950.000	1.87551	-2.81922	2.24078	-3.06641
951.000	1.86958	-2.84502	2.20919	-3.06053
952.000	1.86761	-2.86684	2.24473	-3.08028
953.000	1.90315	-2.79934	2.23486	-3.12192
954.000	1.88933	-2.80531	2.29210	-3.10991
955.000	1.86366	-2.77362	2.29210	-3.05243
956.000	1.88933	-2.85490	2.22301	-3.09222
957.000	1.88538	-2.77755	2.29802	-3.07224
958.000	1.90118	-2.79538	2.28223	-3.10200
959.000	1.92093	-2.78146	2.28223	-3.06236
960.000	1.91105	-2.83900	2.25460	-3.02079
961.000	1.90908	-2.80925	2.29605	-3.08611
962.000	1.92883	-2.80723	2.28420	-3.03460
963.000	1.90908	-2.77949	2.16379	-3.04873
964.000	1.89130	-2.80333	2.17563	-3.05267
965.000	1.88143	-2.79342	2.22104	-3.10411
966.000	1.91500	-2.80329	2.26841	-3.05049
967.000	1.91895	-2.76956	2.26841	-3.07825
968.000	1.91500	-2.76957	2.26644	-3.02869
969.000	1.92488	-2.78939	2.24670	-3.02477
970.000	1.90118	-2.79538	2.17761	-3.06258
971.000	1.95055	-2.75364	2.23880	-3.06840
972.000	1.90315	-2.75768	2.24078	-3.09614
973.000	1.89920	-2.74380	2.24473	-3.02081
974.000	1.90315	-2.77157	2.22696	-3.05653
975.000	1.97622	-2.77938	2.20525	-2.99115
976.000	1.91698	-2.75965	2.23486	-2.97721
977.000	1.95647	-2.81314	2.21709	-3.07439
978.000	1.94857	-2.77745	2.25460	-3.07233
979.000	1.95450	-2.80322	2.17761	-3.05663
980.000	1.90315	-2.77355	2.22893	-3.00102
981.000	1.95252	-2.75959	2.16181	-3.05864
982.000	1.92685	-2.79137	2.17366	-3.06457
983.000	1.92685	-2.78343	2.17958	-2.99319
984.000	1.92093	-2.79733	2.23683	-3.09021
985.000	1.94067	-2.75366	2.19538	-3.03280
986.000	1.93870	-2.76358	2.27236	-3.08022
987.000	1.90908	-2.79536	2.24867	-3.03864
988.000	1.89920	-2.76166	2.17958	-3.04275
989.000	1.97029	-2.77939	2.24078	-3.00694
990.000	1.94067	-2.76754	2.13220	-3.02897
991.000	1.93672	-2.75961	2.16774	-3.04872
992.000	1.90513	-2.74776	2.15984	-2.93771
993.000	1.91303	-2.73981	2.22696	-2.99507
994.000	1.97029	-2.75559	2.15194	-3.08047
995.000	1.99202	-2.77142	2.28618	-3.01081
996.000	2.02163	-2.81501	2.36513	-3.06020
997.000	2.15984	-2.86632	2.42433	-3.07790
998.000	2.38881	-2.97293	2.64927	-3.10709
999.000	2.65716	-3.06348	2.94906	-3.25287
1000.000	2.94511	-3.21129	3.25854	-3.51517
1001.000	3.27430	-3.42606	3.63675	-3.51377
1002.000	3.66234	-3.64420	3.97726	-3.66460
1003.000	4.12676	-3.87533	4.43739	-3.94681
1004.000	4.49437	-4.19909	4.87339	-4.19288
1005.000	4.94011	-4.41714	5.28530	-4.53093
1006.000	5.37154	-4.71331	5.78866	-4.64509
1007.000	5.79844	-5.02429	6.27549	-4.98457
1008.000	6.18367	-5.35229	6.70877	-5.19005
1009.000	6.60735	-5.52219	7.14907	-5.47877
1010.000	6.93877	-5.77071	7.39807	-5.68095
1011.000	7.26972	-5.94821	7.75940	-6.00395
1012.000	7.60406	-6.29657	8.05421	-6.21781
1013.000	7.95340	-6.47040	8.50530	-6.48090
1014.000	8.30989	-6.68229	8.77197	-6.58116
1015.000	8.61163	-6.87495	9.09417	-6.84278
1016.000	8.96883	-7.03491	9.50812	-7.04938
1017.000	9.37153	-7.26857	9.82321	-7.28214
1018.000	9.67534	-7.46472	10.09363	-7.42259
1019.000	10.03805	-7.64527	10.46495	-7.55436
1020.000	10.35977	-7.92773	10.81059	-7.75129
1021.000	10.69228	-8.05158	11.21632	-7.93801
1022.000	11.05074	-8.22381	11.57539	-8.18606
1023.000	11.33801	-8.38003	11.88621	-8.34284
1024.000	11.63040	-8.55448	12.36244	-8.56013
1025.000	11.96381	-8.71356	12.52080	-8.69358
1026.000	12.17744	-8.87575	12.69966	-8.87526
1027.000	12.32659	-9.00548	12.88203	-8.95602
1028.000	12.57919	-9.10858	13.21600	-9.07448
1029.000	12.75609	-9.08345	13.26845	-9.11032
1030.000	12.88767	-9.10525	13.43502	-9.24746
1031.000	13.00221	-9.08602	13.50794	-9.30310
1032.000	13.06601	-9.05348	13.51354	-9.30854
1033.000	13.05100	-8.96706	13.58455	-9.35476
1034.000	13.06976	-8.87561	13.67231	-9.32500
1035.000	13.07164	-8.76768	13.50420	-9.27122
1036.000	12.99283	-8.70604	13.49111	-9.19821
1037.000	12.93275	-8.63610	13.43689	-9.20403
1038.000	12.85760	-8.53246	13.24222	-9.16037
1039.000	12.74105	-8.48131	13.28905	-9.15297
1040.000	12.62815	-8.45653	13.14665	-9.05623
1041.000	12.49819	-8.40183	13.12228	-9.01554
1042.000	12.39639	-8.47352	13.06038	-8.91755
1043.000	12.30583	-8.46120	13.06601	-8.90790
1044.000	12.27375	-8.53257	12.92336	-8.85804
1045.000	12.21711	-8.51726	13.02098	-8.87733
1046.000	12.25676	-8.61865	13.10352	-8.87630
1047.000	12.25298	-8.67198	13.15415	-8.96903
1048.000	12.29074	-8.71444	13.17664	-8.99279
1049.000	12.42467	-8.83150	13.27219	-9.06298
1050.000	12.46426	-8.83586	13.41444	-9.06151
1051.000	12.58672	-8.88481	13.42941	-9.13265
1052.000	12.69025	-8.90590	13.48363	-9.07780
1053.000	12.81062	-8.95663	13.58641	-9.21343
1054.000	12.85573	-9.01371	13.60509	-9.20330
1055.000	12.88391	-9.05811	13.64804	-9.23933
1056.000	12.97781	-9.05098	13.70777	-9.28786
1057.000	13.00033	-9.09176	13.70217	-9.29937
1058.000	13.05663	-9.13129	13.71896	-9.35517
1059.000	13.04162	-9.06759	13.82526	-9.42621
1060.000	13.05851	-9.11989	13.68724	-9.37711
1061.000	13.03412	-9.10944	13.75441	-9.37072
1062.000	13.04725	-9.07873	13.80662	-9.39123
1063.000	13.03224	-9.03769	13.65924	-9.40643
1064.000	12.97593	-9.06428	13.64991	-9.39739
1065.000	13.03224	-9.06415	13.69284	-9.34679
1066.000	13.00033	-9.03883	13.70777	-9.38007
1067.000	12.99658	-9.05220	13.63684	-9.36779
1068.000	12.97405	-8.98115	13.69284	-9.35243
1069.000	12.98532	-9.02613	13.66857	-9.32515
1070.000	12.99470	-9.00689	13.65364	-9.32573
1071.000	12.96655	-8.99844	13.58641	-9.32833
1072.000	12.94214	-8.95390	13.61816	-9.33840
1073.000	12.97218	-8.98500	13.60136	-9.33717
1074.000	12.93275	-8.95802	13.53410	-9.32093
1075.000	12.95716	-8.96094	13.52102	-9.33650
1076.000	12.94026	-8.95397	13.57894	-9.35122
1077.000	12.93462	-8.93714	13.46307	-9.30105
1078.000	12.92711	-8.94119	13.59202	-9.33188
1079.000	12.89894	-8.91379	13.51354	-9.27651
1080.000	12.90082	-8.89669	13.59015	-9.25851
1081.000	12.91021	-8.87365	13.42941	-9.24014
1082.000	12.85573	-8.82631	13.47990	-9.26649
1083.000	12.87264	-8.93553	13.49859	-9.27520
1084.000	12.85760	-8.93038	13.46120	-9.26720
1085.000	12.85948	-8.92085	13.43315	-9.26261
1086.000	12.83693	-8.91596	13.45746	-9.28054
1087.000	12.87452	-8.93357	13.44437	-9.24899
1088.000	12.91021	-8.92286	13.35270	-9.27508
1089.000	12.85385	-8.87940	13.44624	-9.32430
1090.000	12.88579	-8.92372	13.50981	-9.29926
1091.000	12.88955	-8.89141	13.50046	-9.25628
1092.000	12.91772	-8.87717	13.53597	-9.31144
1093.000	12.92148	-8.87704	13.58081	-9.31537
1094.000	12.94026	-8.91991	13.50420	-9.28817
1095.000	12.92899	-8.87678	13.47803	-9.30613
1096.000	12.92899	-8.87110	13.46307	-9.33308
1097.000	12.96091	-8.92864	13.57334	-9.35143
1098.000	12.95716	-8.91175	13.51728	-9.33853
1099.000	12.96279	-8.89830	13.54158	-9.28297
1100.000	12.94777	-8.93100	13.50607	-9.33143
1101.000	13.02286	-8.92456	13.59575	-9.38068
1102.000	13.00409	-8.93468	13.58828	-9.32638
1103.000	12.99658	-8.85927	13.58828	-9.32449
1104.000	13.01723	-8.91909	13.53971	-9.30753
1105.000	13.02098	-8.90003	13.59389	-9.30733
1106.000	13.01347	-8.90030	13.60322	-9.37098
1107.000	12.99658	-8.88197	13.54718	-9.32985
1108.000	12.99283	-8.88400	13.59575	-9.29784
1109.000	12.97969	-8.88825	13.55839	-9.35578
1110.000	13.02849	-8.91112	13.53597	-9.34911
1111.000	13.01910	-8.90199	13.59762	-9.36555
1112.000	13.01910	-8.88307	13.56213	-9.39329
1113.000	13.03224	-8.93558	13.48177	-9.34555
1114.000	13.04350	-8.92761	13.58268	-9.36802
1115.000	13.05100	-8.96895	13.56773	-9.40060
1116.000	13.02473	-8.95098	13.54344	-9.26783
1117.000	13.00221	-8.95556	13.61443	-9.36302
1118.000	13.01723	-8.94368	13.52476	-9.36649
1119.000	13.02286	-8.97374	13.58268	-9.39060
1120.000	12.99095	-8.95974	13.65177	-9.38791
1121.000	13.01535	-8.97968	13.65924	-9.35186
1122.000	13.02098	-9.00595	13.60696	-9.30871
1123.000	12.97781	-8.97723	13.62750	-9.32298
1124.000	12.99658	-8.99358	13.48924	-9.35656
1125.000	13.00972	-8.98933	13.58268	-9.29646
1126.000	12.97030	-8.97939	13.59015	-9.32442
1127.000	12.97593	-8.97162	13.54531	-9.33745
1128.000	12.99658	-9.00304	13.55652	-9.38786
1129.000	12.98156	-8.98655	13.52663	-9.36830
1130.000	12.94401	-8.96708	13.52476	-9.34201
1131.000	12.99095	-8.99568	13.60322	-9.40298
1132.000	13.00221	-8.95934	13.53036	-9.34933
1133.000	12.94965	-8.97255	13.57147	-9.36845
1134.000	13.00784	-8.95347	13.57521	-9.33630
1135.000	13.02661	-8.98306	13.50607	-9.35968
1136.000	13.03974	-9.00906	13.51541	-9.34802
1137.000	13.02473	-8.99258	13.55652	-9.44432
1138.000	13.01535	-8.98724	13.53971	-9.39227
1139.000	13.00972	-9.01581	13.51167	-9.35570
1140.000	13.02286	-9.02101	13.53223	-9.40762
1141.000	12.99283	-9.02208	13.62003	-9.35339
1142.000	13.00972	-9.04606	13.62750	-9.42273
1143.000	13.02849	-9.05105	13.58828	-9.40168
1144.000	13.00784	-9.01020	13.59762	-9.37120
1145.000	13.00972	-9.03282	13.63310	-9.39429
1146.000	13.04725	-9.06928	13.56026	-9.38959
1147.000	13.04162	-9.05436	13.53971	-9.35085
1148.000	13.02286	-9.08717	13.47242	-9.36286
1149.000	13.02849	-9.06995	13.57707	-9.37953
1150.000	13.02849	-9.03026	13.51915	-9.40248
1151.000	13.02286	-9.04180	13.51167	-9.39336
1152.000	13.01160	-9.04221	13.46120	-9.39531
1153.000	13.01160	-9.07434	13.54158	-9.41667
1154.000	13.05288	-9.07097	13.56213	-9.44034
1155.000	13.05288	-9.05207	13.59389	-9.41464
1156.000	13.03974	-9.01473	13.61630	-9.33471
1157.000	13.07727	-9.03607	13.56773	-9.36295
1158.000	13.05475	-9.08224	13.53784	-9.34151
1159.000	13.06414	-9.02331	13.56773	-9.42130
1160.000	13.04725	-9.05605	13.49672	-9.45042
1161.000	13.05475	-9.07846	13.52849	-9.42095
1162.000	13.06414	-9.09323	13.53223	-9.39068
1163.000	13.04725	-9.06550	13.56026	-9.40842
1164.000	13.03036	-9.06611	13.53597	-9.43007
1165.000	13.03787	-9.12253	13.53597	-9.39054
1166.000	13.02098	-9.09479	13.49485	-9.41849
1167.000	13.00784	-9.11228	13.56213	-9.42152
1168.000	13.03036	-9.08690	13.59202	-9.39589
1169.000	13.00972	-9.04227	13.63124	-9.46962
1170.000	13.03412	-9.08487	13.53223	-9.40198
1171.000	13.01535	-9.06854	13.58455	-9.38865
1172.000	13.00221	-9.06523	13.54344	-9.38648
1173.000	13.00784	-9.08960	13.53971	-9.37909
1174.000	12.99470	-9.03714	13.53410	-9.40190
1175.000	13.03599	-9.09236	13.63124	-9.40377
1176.000	13.04537	-9.07880	13.50607	-9.40487
1177.000	13.05663	-9.11051	13.49111	-9.40922
1178.000	13.02661	-9.11727	13.46681	-9.42710
1179.000	13.00409	-9.08406	13.56960	-9.40994
1180.000	12.99470	-9.12031	13.56960	-9.43252
1181.000	13.02098	-9.08157	13.48924	-9.40364
1182.000	13.02849	-9.08507	13.45746	-9.40863
1183.000	13.00597	-9.07455	13.54531	-9.39582
1184.000	13.01160	-9.08757	13.47055	-9.47779
1185.000	13.00033	-9.05774	13.62003	-9.44560
1186.000	13.00597	-9.04619	13.55279	-9.41247
1187.000	13.01910	-9.04005	13.52289	-9.40610
1188.000	13.01723	-9.02121	13.62563	-9.39270
1189.000	12.99846	-9.06536	13.53784	-9.48081
1190.000	13.03974	-9.07333	13.59762	-9.44272
1191.000	13.02098	-9.10235	13.49111	-9.46946
1192.000	13.03036	-9.06989	13.52476	-9.41356
1193.000	13.00784	-9.08960	13.51728	-9.41385
1194.000	13.03224	-9.08494	13.56213	-9.45351
1195.000	13.02473	-9.09844	13.53597	-9.45077
1196.000	12.97405	-9.07569	13.60696	-9.37648
1197.000	13.02098	-9.11747	13.48177	-9.40770
1198.000	13.03036	-9.09824	13.59389	-9.41275
1199.000	13.03224	-9.08494	13.47803	-9.43608
1200.000	13.03974	-9.09601	13.50607	-9.42370
1201.000	13.04350	-9.07886	13.47990	-9.40589
1202.000	13.02849	-9.02648	13.54905	-9.41450
1203.000	13.04537	-9.10147	13.59949	-9.40689
1204.000	13.03599	-9.09614	13.52849	-9.39271
1205.000	13.03787	-9.09607	13.62190	-9.41354
1206.000	13.04537	-9.11470	13.54344	-9.42978
1207.000	13.04537	-9.06935	13.55839	-9.46119
1208.000	13.05663	-9.08406	13.53971	-9.42051
1209.000	13.08664	-9.10942	13.53410	-9.45273
1210.000	13.03787	-9.09230	13.56960	-9.41182
1211.000	13.05475	-9.10869	13.47242	-9.47583
1212.000	13.05851	-9.12178	13.60136	-9.47079
1213.000	13.05288	-9.09931	13.47803	-9.44361
1214.000	13.05475	-9.09357	13.56587	-9.39879
1215.000	13.05100	-9.10505	13.57894	-9.44721
1216.000	13.03224	-9.09439	13.54905	-9.45779
1217.000	13.03599	-9.08102	13.53223	-9.40386
1218.000	13.06601	-9.09128	13.47616	-9.37025
1219.000	13.04725	-9.08818	13.51354	-9.45353
1220.000	13.04725	-9.07495	13.56400	-9.43462
1221.000	13.00972	-9.03282	13.53784	-9.48269
1222.000	13.05288	-9.11443	13.54531	-9.39017
1223.000	13.05851	-9.07454	13.51728	-9.44209
1224.000	13.06789	-9.09499	13.45185	-9.42203
1225.000	13.07351	-9.10801	13.49672	-9.44100
1226.000	13.03974	-9.13380	13.56400	-9.42145
1227.000	13.09227	-9.13566	13.49111	-9.45816
1228.000	13.05475	-9.09546	13.56026	-9.42912
1229.000	13.06789	-9.10821	13.46307	-9.47431
1230.000	13.05475	-9.11058	13.46681	-9.47229
1231.000	13.05100	-9.10316	13.57707	-9.47551
1232.000	13.03036	-9.10013	13.53410	-9.45084
1233.000	13.03036	-9.11713	13.53036	-9.46605
1234.000	13.03974	-9.12057	13.51541	-9.44969
1235.000	13.04537	-9.12037	13.53597	-9.46959
1236.000	13.02661	-9.11538	13.42941	-9.45679
1237.000	13.05100	-9.12583	13.52476	-9.42486
1238.000	13.02473	-9.15512	13.51728	-9.46467
1239.000	13.06601	-9.14229	13.52663	-9.42855
1240.000	13.08102	-9.11718	13.47616	-9.44369
1241.000	13.06414	-9.12913	13.62377	-9.41347
1242.000	13.10165	-9.12777	13.53971	-9.44498
1243.000	13.07539	-9.15328	13.53410	-9.42638
1244.000	13.04162	-9.10350	13.52289	-9.38916
1245.000	13.06038	-9.16138	13.59202	-9.42412
1246.000	13.07539	-9.15895	13.55466	-9.40299
1247.000	13.08102	-9.19085	13.52663	-9.43984
1248.000	13.07914	-9.15692	13.50981	-9.46308
1249.000	13.06601	-9.14607	13.52102	-9.44194
1250.000	13.09227	-9.13944	13.53971	-9.44121
1251.000	13.05851	-9.12556	13.63310	-9.39429
1252.000	13.06414	-9.11591	13.55839	-9.44990
1253.000	13.11853	-9.15737	13.48550	-9.46591
1254.000	13.09415	-9.16770	13.44998	-9.41269
1255.000	13.08664	-9.16609	13.48550	-9.44521
1256.000	13.08477	-9.14916	13.52289	-9.41928
1257.000	13.07539	-9.14383	13.57147	-9.43245
1258.000	13.10915	-9.16527	13.52289	-9.43246
1259.000	13.12040	-9.15730	13.54531	-9.40147
1260.000	13.08289	-9.15489	13.41444	-9.42348
1261.000	13.06226	-9.12164	13.56587	-9.41573
1262.000	13.11290	-9.19723	13.53784	-9.40741
1263.000	13.09790	-9.13168	13.54905	-9.38061
1264.000	13.09040	-9.14329	13.48737	-9.43384
1265.000	13.07164	-9.17797	13.56213	-9.42717
1266.000	13.06038	-9.19160	13.52102	-9.42500
1267.000	13.10540	-9.17107	13.50794	-9.44057
1268.000	13.08289	-9.16811	13.55279	-9.41435
1269.000	13.08664	-9.12831	13.47055	-9.43261
1270.000	13.07914	-9.18336	13.56960	-9.44193
1271.000	13.09227	-9.13189	13.52289	-9.41175
1272.000	13.03599	-9.18494	13.53223	-9.44903
1273.000	13.07164	-9.18552	13.53597	-9.41877
1274.000	13.06976	-9.17048	13.53971	-9.47321
1275.000	13.05475	-9.17670	13.55092	-9.43701
1276.000	13.08289	-9.22288	13.43315	-9.47171
1277.000	13.09415	-9.14315	13.50233	-9.39184
1278.000	13.06226	-9.14620	13.58455	-9.41876
1279.000	13.06789	-9.14600	13.57334	-9.39473
1280.000	13.09040	-9.14707	13.53971	-9.42051
1281.000	13.06601	-9.17440	13.48363	-9.40574
1282.000	13.09415	-9.15071	13.52102	-9.42312
1283.000	13.11103	-9.16897	13.57334	-9.34767
1284.000	13.08477	-9.18127	13.52476	-9.42109
1285.000	13.09040	-9.16784	13.58641	-9.39611
1286.000	13.09227	-9.15266	13.47429	-9.40234
1287.000	13.11478	-9.15751	13.52849	-9.40965
1288.000	13.10915	-9.14071	13.50607	-9.41993
1289.000	13.11478	-9.18583	13.52663	-9.40784
1290.000	13.09040	-9.18106	13.51167	-9.43666
1291.000	13.09415	-9.16959	13.55466	-9.47827
1292.000	13.07727	-9.16077	13.57707	-9.44352
1293.000	13.12415	-9.16472	13.55466	-9.41805
1294.000	13.09227	-9.17155	13.44811	-9.44289
1295.000	13.08102	-9.14930	13.61069	-9.44785
1296.000	13.06976	-9.15726	13.52102	-9.43818
1297.000	13.08664	-9.17364	13.57894	-9.48108
1298.000	13.10352	-9.18813	13.58455	-9.43194
1299.000	13.07914	-9.17014	13.47242	-9.44383
1300.000	13.08664	-9.15665	13.56587	-9.44396
1301.000	13.06226	-9.16698	13.61630	-9.45892
1302.000	13.08102	-9.14741	13.56587	-9.49476
1303.000	13.09790	-9.18267	13.54158	-9.46937
1304.000	13.09790	-9.14113	13.52476	-9.38720
1305.000	13.07727	-9.17021	13.60883	-9.41593
1306.000	13.10165	-9.15799	13.59015	-9.36773
1307.000	13.08852	-9.16413	13.58641	-9.44692
1308.000	13.11665	-9.19520	13.49485	-9.44672
1309.000	13.11290	-9.19345	13.49111	-9.41110
1310.000	13.10352	-9.10503	13.57707	-9.42094
1311.000	13.10728	-9.15211	13.53410	-9.39626
1312.000	13.13353	-9.18325	13.55839	-9.39908
1313.000	13.08664	-9.16420	13.53597	-9.38865
1314.000	13.14853	-9.18081	13.58641	-9.41305
1315.000	13.14853	-9.18837	13.59202	-9.40906
1316.000	13.09977	-9.17883	13.57707	-9.36635
1317.000	13.10165	-9.18442	13.63124	-9.39812
1318.000	13.08664	-9.17742	13.54718	-9.46915
1319.000	13.09602	-9.18841	13.58081	-9.47536
1320.000	13.11665	-9.18199	13.60136	-9.44257
1321.000	13.12040	-9.18374	13.58081	-9.40197
1322.000	13.14103	-9.18675	13.61256	-9.37250
1323.000	13.12603	-9.19297	13.53597	-9.40748
1324.000	13.17664	-9.23452	13.55279	-9.45011
1325.000	13.14665	-9.21109	13.65551	-9.40282
1326.000	13.10728	-9.20310	13.51728	-9.41950
1327.000	13.09977	-9.20526	13.56213	-9.39893
1328.000	13.15790	-9.20501	13.67604	-9.36062
1329.000	13.13728	-9.19822	13.50420	-9.37105
1330.000	13.12790	-9.19668	13.55466	-9.39734
1331.000	13.13540	-9.15486	13.62563	-9.39646
1332.000	13.13353	-9.21346	13.53784	-9.43752
1333.000	13.18039	-9.19285	13.52102	-9.46076
1334.000	13.13915	-9.21136	13.62190	-9.40225
1335.000	13.14290	-9.16592	13.56400	-9.41392
1336.000	13.14290	-9.20368	13.57707	-9.37765
1337.000	13.13728	-9.23031	13.61443	-9.42701
1338.000	13.15602	-9.18431	13.61256	-9.38568
1339.000	13.14853	-9.21857	13.56213	-9.41587
1340.000	13.15602	-9.18054	13.53971	-9.43745
1341.000	13.13728	-9.17745	13.58081	-9.41515
1342.000	13.14103	-9.16787	13.57521	-9.40972
1343.000	13.14290	-9.23576	13.58455	-9.41312
1344.000	13.17477	-9.23081	13.57521	-9.38525
1345.000	13.13728	-9.22654	13.54158	-9.42232
1346.000	13.16165	-9.23130	13.53410	-9.43390
1347.000	13.14853	-9.13550	13.63124	-9.38495
1348.000	13.15040	-9.18075	13.67791	-9.37372
1349.000	13.13165	-9.21353	13.62377	-9.42852
1350.000	13.14478	-9.19794	13.64431	-9.38820
1351.000	13.15227	-9.24485	13.57147	-9.42116
1352.000	13.15602	-9.21452	13.51915	-9.42507
1353.000	13.15602	-9.18243	13.55279	-9.42188
1354.000	13.19726	-9.16580	13.55092	-9.40690
1355.000	13.19164	-9.14336	13.52663	-9.40596
1356.000	13.20101	-9.17322	13.60509	-9.37091
1357.000	13.16352	-9.20480	13.61630	-9.42693
1358.000	13.19538	-9.19230	13.49111	-9.46381
1359.000	13.18227	-9.14181	13.57147	-9.46444
1360.000	13.10915	-9.17282	13.46681	-9.45534
1361.000	13.05100	-9.12205	13.43502	-9.49046
1362.000	12.94214	-9.16378	13.47616	-9.44557
1363.000	12.89706	-9.14651	13.30777	-9.46148
1364.000	12.83881	-9.18830	13.19351	-9.51295
1365.000	12.77866	-9.20558	13.19164	-9.46591
1366.000	12.70342	-9.14396	13.16915	-9.47996
1367.000	12.66767	-9.15090	13.12228	-9.47608
1368.000	12.62438	-9.09375	13.14103	-9.44898
1369.000	12.60932	-9.10753	13.05663	-9.40124
1370.000	12.62438	-9.09375	13.10165	-9.45047
1371.000	12.66955	-9.09974	13.06038	-9.36903
1372.000	12.66767	-9.09791	12.99095	-9.37727
1373.000	12.71471	-9.11140	13.12415	-9.35533
1374.000	12.76926	-9.13406	13.04725	-9.34122
1375.000	12.78618	-9.08806	13.16352	-9.35952
1376.000	12.83317	-9.12611	13.08664	-9.33975
1377.000	12.86700	-9.10221	13.20850	-9.26918
1378.000	12.91584	-9.16851	13.18789	-9.37746
1379.000	12.91397	-9.13456	13.19726	-9.31110
1380.000	12.93838	-9.13368	13.30590	-9.32021
1381.000	12.90645	-9.13672	13.28717	-9.32846
1382.000	12.91397	-9.13834	13.25534	-9.38434
1383.000	12.90082	-9.13881	13.26845	-9.37064
1384.000	12.91397	-9.13645	13.19726	-9.41858
1385.000	12.90269	-9.15954	13.22911	-9.36271
1386.000	12.84257	-9.19950	13.22536	-9.37227
1387.000	12.87264	-9.15873	13.24972	-9.42601
1388.000	12.79558	-9.16527	13.18976	-9.44902
1389.000	12.82190	-9.11895	13.27781	-9.43060
1390.000	12.82378	-9.16048	13.24035	-9.38679
1391.000	12.83317	-9.12233	13.28156	-9.38523
1392.000	12.84257	-9.13523	13.18601	-9.35301
1393.000	12.86888	-9.13429	13.24035	-9.36040
1394.000	12.85760	-9.18006	13.26283	-9.36143
1395.000	12.82190	-9.14731	13.30964	-9.39735
1396.000	12.83317	-9.12233	13.23848	-9.37178
1397.000	12.83505	-9.13361	13.18789	-9.38500
1398.000	12.82754	-9.13955	13.24972	-9.37512
1399.000	12.83693	-9.12030	13.24410	-9.35271
1400.000	12.80498	-9.11198	13.21974	-9.37249
1401.000	12.85009	-9.13874	13.14103	-9.44710
1402.000	12.82754	-9.15845	13.23848	-9.39440
1403.000	12.82190	-9.15487	13.21600	-9.40468
1404.000	12.82002	-9.13036	13.18976	-9.37739
1405.000	12.80498	-9.13279	13.24784	-9.42043
1406.000	12.78618	-9.13913	13.24035	-9.40375
1407.000	12.78806	-9.11448	13.22536	-9.38547
1408.000	12.76926	-9.16432	13.19726	-9.37711
1409.000	12.80122	-9.14616	13.12603	-9.42881
1410.000	12.77490	-9.15277	13.12978	-9.42301
1411.000	12.77490	-9.16601	13.18976	-9.38304
1412.000	12.78994	-9.18627	13.24597	-9.34322
1413.000	12.78054	-9.15446	13.27781	-9.38725
1414.000	12.76361	-9.12102	13.23098	-9.39845
1415.000	12.82566	-9.14340	13.19726	-9.34128
1416.000	12.82002	-9.10956	13.40696	-9.38421
1417.000	12.83129	-9.12807	13.30403	-9.33914
1418.000	12.79558	-9.11421	13.19913	-9.38835
1419.000	12.80686	-9.16108	13.20475	-9.33345
1420.000	12.81814	-9.13988	13.20850	-9.37480
1421.000	12.83505	-9.13928	13.20475	-9.39379
1422.000	12.78806	-9.08989	13.30028	-9.38828
1423.000	12.83693	-9.14299	13.25721	-9.37861
1424.000	12.81626	-9.18344	13.23660	-9.40767
1425.000	12.82190	-9.15487	13.28905	-9.40379
1426.000	12.83693	-9.15245	13.28343	-9.33992
1427.000	12.82378	-9.15481	13.23286	-9.39650
1428.000	12.79370	-9.13130	13.26283	-9.37651
1429.000	12.80498	-9.13846	13.32649	-9.38163
1430.000	12.80874	-9.14022	13.23286	-9.39273
1431.000	12.81250	-9.13252	13.25721	-9.41254
1432.000	12.81814	-9.15312	13.35270	-9.37686
1433.000	12.80498	-9.11388	13.26096	-9.35585
1434.000	12.82002	-9.08119	13.21038	-9.38038
1435.000	12.79370	-9.14454	13.21600	-9.36886
1436.000	12.80874	-9.13644	13.15790	-9.38802
1437.000	12.79558	-9.13501	13.26096	-9.36527
1438.000	12.76738	-9.12845	13.12790	-9.38726
1439.000	12.77678	-9.16783	13.22911	-9.38721
1440.000	12.78242	-9.13926	13.18039	-9.35511
1441.000	12.77302	-9.14716	13.13915	-9.35666
1442.000	12.77302	-9.14905	13.24784	-9.43551
1443.000	12.80310	-9.14798	13.17477	-9.41189
1444.000	12.76926	-9.10758	13.15040	-9.40527
1445.000	12.79182	-9.13326	13.26283	-9.35389
1446.000	12.79370	-9.12373	13.22536	-9.40998
1447.000	12.76549	-9.13041	13.20850	-9.36725
1448.000	12.77678	-9.09785	13.20288	-9.32032
1449.000	12.80310	-9.11583	13.12978	-9.37398
1450.000	12.81250	-9.14008	13.24222	-9.31884
1451.000	12.78994	-9.10874	13.20288	-9.38255
1452.000	12.82002	-9.13225	13.26657	-9.39710
1453.000	12.82002	-9.14171	13.21225	-9.28602
1454.000	12.80122	-9.09131	13.15040	-9.39961
1455.000	12.80122	-9.13481	13.16165	-9.38222
1456.000	12.83693	-9.16190	13.28530	-9.32476
1457.000	12.82566	-9.09801	13.22911	-9.40606
1458.000	12.82378	-9.13590	13.30028	-9.34493
1459.000	12.81062	-9.14771	13.22911	-9.33065
1460.000	12.78618	-9.11265	13.15602	-9.40129
1461.000	12.81626	-9.11347	13.21412	-9.39155
1462.000	12.84257	-9.15981	13.21600	-9.32171
1463.000	12.81250	-9.14387	13.15227	-9.35994
1464.000	12.81062	-9.15717	13.17477	-9.33458
1465.000	12.80874	-9.10050	13.20663	-9.36921
1466.000	12.83693	-9.10706	13.17664	-9.37411
1467.000	12.85573	-9.15177	13.21412	-9.39532
1468.000	12.82190	-9.13597	13.20288	-9.38821
1469.000	12.81062	-9.12691	13.19913	-9.37326
1470.000	12.83505	-9.13550	13.18414	-9.35497
1471.000	12.81062	-9.13070	13.24972	-9.27707
1472.000	12.84257	-9.14657	13.27594	-9.33266
1473.000	12.82754	-9.13198	13.22724	-9.38540
1474.000	12.82002	-9.09443	13.23848	-9.34350
1475.000	12.85197	-9.12355	13.27407	-9.40624
1476.000	12.80498	-9.13090	13.27781	-9.36652
1477.000	12.81814	-9.13232	13.22349	-9.35726
1478.000	12.82754	-9.12820	13.19726	-9.38465
1479.000	12.81438	-9.14191	13.24410	-9.37345
1480.000	12.84445	-9.18431	13.16165	-9.33130
1481.000	12.82754	-9.14900	13.23473	-9.32101
1482.000	12.84069	-9.14664	13.22536	-9.32136
1483.000	12.84257	-9.17115	13.21038	-9.36341
1484.000	12.84445	-9.16541	13.27407	-9.38174
1485.000	12.82754	-9.13766	13.16915	-9.29329
1486.000	12.85197	-9.22562	13.17477	-9.38361
1487.000	12.87076	-9.15880	13.24597	-9.33756
1488.000	12.83881	-9.14482	13.29279	-9.33202
1489.000	12.85760	-9.16116	13.14665	-9.29790
1490.000	12.83693	-9.16568	13.17852	-9.35895
1491.000	12.85760	-9.16305	13.22724	-9.31564
1492.000	12.86512	-9.15522	13.17102	-9.31208
1493.000	12.83317	-9.15447	13.16540	-9.31795
1494.000	12.83129	-9.16210	13.12415	-9.29496
1495.000	12.85573	-9.15744	13.24035	-9.35851
1496.000	12.82941	-9.17540	13.16352	-9.30482
1497.000	12.85573	-9.17635	13.16352	-9.33123
1498.000	12.82941	-9.15271	13.24222	-9.34901
1499.000	12.83881	-9.17128	13.12040	-9.35170
1500.000	12.81438	-9.16082	13.14478	-9.35268
1501.000	12.83505	-9.14684	13.22724	-9.35901
1502.000	12.84069	-9.20524	13.19913	-9.30537
1503.000	12.83881	-9.16939	13.26096	-9.35585
1504.000	12.85948	-9.19133	13.23286	-9.35125
1505.000	12.82754	-9.13387	13.23286	-9.33617
1506.000	12.85760	-9.15360	13.21225	-9.35957
1507.000	12.88203	-9.17162	13.23098	-9.37772
1508.000	12.86700	-9.16082	13.22536	-9.37793
1509.000	12.86888	-9.16642	13.17852	-9.40421
1510.000	12.86136	-9.19316	13.22162	-9.36487
1511.000	12.84069	-9.12962	13.23660	-9.31717
1512.000	12.85573	-9.16879	13.22536	-9.38547
1513.000	12.88203	-9.17918	13.17664	-9.34771
1514.000	12.85760	-9.16872	13.17289	-9.35162
1515.000	12.86136	-9.18560	13.18976	-9.32270
1516.000	12.87452	-9.16244	13.16540	-9.36133
1517.000	12.87076	-9.16636	13.19913	-9.34309
1518.000	12.89330	-9.12774	13.24410	-9.33386
1519.000	12.83881	-9.17885	13.21412	-9.31613
1520.000	12.87639	-9.20773	13.19164	-9.30188
1521.000	12.85948	-9.20645	13.18414	-9.36063
1522.000	12.84445	-9.16541	13.22724	-9.36278
1523.000	12.86136	-9.18938	13.12415	-9.36665
1524.000	12.84445	-9.19755	13.24410	-9.32443
1525.000	12.84821	-9.21442	13.20101	-9.33925
1526.000	12.83693	-9.20727	13.20663	-9.33904
1527.000	12.85197	-9.18215	13.21600	-9.37640
1528.000	12.83317	-9.14691	13.13728	-9.31523
1529.000	12.83881	-9.20909	13.26845	-9.34048
1530.000	12.86700	-9.18728	13.14478	-9.39039
1531.000	12.84821	-9.17284	13.18414	-9.37006
1532.000	12.86700	-9.16271	13.15602	-9.37866
1533.000	12.88391	-9.16399	13.18414	-9.27952
1534.000	12.84821	-9.19930	13.18039	-9.38528
1535.000	12.84821	-9.19174	13.22724	-9.32506
1536.000	12.87452	-9.18890	13.16915	-9.36308
1537.000	12.84821	-9.20119	13.17289	-9.34785
1538.000	12.85573	-9.18958	13.24222	-9.42818
1539.000	12.84633	-9.19559	13.25908	-9.33706
1540.000	12.85385	-9.21800	13.15977	-9.38229
1541.000	12.81814	-9.15123	13.31339	-9.38778
1542.000	12.80310	-9.13096	13.24972	-9.41471
1543.000	12.86324	-9.19687	13.26845	-9.40646
1544.000	12.85948	-9.23102	13.25908	-9.32387
1545.000	12.83129	-9.15832	13.17477	-9.36287
1546.000	12.86888	-9.18911	13.17102	-9.37809
1547.000	12.84633	-9.19370	13.22911	-9.28350
1548.000	12.83317	-9.14313	13.21225	-9.36334
1549.000	12.86136	-9.19316	13.21225	-9.32940
1550.000	12.88579	-9.14502	13.24972	-9.36570
1551.000	12.86136	-9.17993	13.19164	-9.29433
1552.000	12.84633	-9.15589	13.18227	-9.36636
1553.000	12.79746	-9.15386	13.23473	-9.31347
1554.000	12.82378	-9.17560	13.18414	-9.36629
1555.000	12.82378	-9.16237	13.19538	-9.30740
1556.000	12.84257	-9.13145	13.25534	-9.35606
1557.000	12.85760	-9.14792	13.25159	-9.34677
1558.000	12.84257	-9.15603	13.11103	-9.36337
1559.000	12.85948	-9.14030	13.22349	-9.32143
1560.000	12.82941	-9.13003	13.27032	-9.36680
1561.000	12.82941	-9.19431	13.16165	-9.40862
1562.000	12.85573	-9.15744	13.30964	-9.31065
1563.000	12.84445	-9.16541	13.15040	-9.40150
1564.000	12.88579	-9.18283	13.33211	-9.37200
1565.000	12.84633	-9.14833	13.18789	-9.34163
1566.000	12.82566	-9.16230	13.19538	-9.35643
1567.000	12.82190	-9.15298	13.27219	-9.39312
1568.000	12.84257	-9.20328	13.20475	-9.36740
1569.000	12.84069	-9.18256	13.23473	-9.34364
1570.000	12.83693	-9.17702	13.33398	-9.41149
1571.000	12.81250	-9.13252	13.22349	-9.33652
1572.000	12.82754	-9.14711	13.15602	-9.38997
1573.000	12.82566	-9.16608	13.29092	-9.32832
1574.000	12.81438	-9.16649	13.24410	-9.34517
1575.000	12.83693	-9.16190	13.14665	-9.35261
1576.000	12.84821	-9.18229	13.27219	-9.39501
1577.000	12.83129	-9.12239	13.17852	-9.34198
1578.000	12.84445	-9.15596	13.28530	-9.33419
1579.000	12.80874	-9.12698	13.18601	-9.35301
1580.000	12.82002	-9.17952	13.13728	-9.32843
1581.000	12.82378	-9.16237	13.13165	-9.32676
1582.000	12.82566	-9.20389	13.11290	-9.35198
1583.000	12.83317	-9.16581	13.26657	-9.38014
1584.000	12.83881	-9.15238	13.24222	-9.37352
1585.000	12.82754	-9.15467	13.24597	-9.32436
1586.000	12.83505	-9.16953	13.21412	-9.30670
1587.000	12.81250	-9.18546	13.18227	-9.37013
1588.000	12.87076	-9.16258	13.28530	-9.33607
1589.000	12.83881	-9.14482	13.20288	-9.35238
1590.000	12.84445	-9.14461	13.10728	-9.38049
1591.000	12.80686	-9.14028	13.22536	-9.35908
1592.000	12.82190	-9.14542	13.25721	-9.32771
1593.000	12.83505	-9.16764	13.17852	-9.31935
1594.000	12.81814	-9.18148	13.21974	-9.37437
1595.000	12.80498	-9.18762	13.24784	-9.38651
1596.000	12.82378	-9.18128	13.19913	-9.34498
1597.000	12.83317	-9.12611	13.18976	-9.35476
1598.000	12.79370	-9.16534	13.14665	-9.33940
1599.000	12.79746	-9.17655	13.25908	-9.34461
1600.000	12.82566	-9.16797	13.26096	-9.38224
1601.000	12.81814	-9.17202	13.21600	-9.33869
1602.000	12.82941	-9.17351	13.21225	-9.32751
1603.000	12.81814	-9.11530	13.19351	-9.34896
1604.000	12.82190	-9.12273	13.11665	-9.40842
1605.000	12.81814	-9.13799	13.21038	-9.38604
1606.000	12.85197	-9.13489	13.17289	-9.31390
1607.000	12.84069	-9.13530	13.21038	-9.35964
1608.000	12.83693	-9.13543	13.23286	-9.34182
1609.000	12.84069	-9.17878	13.22536	-9.40809
1610.000	12.81626	-9.14184	13.15227	-9.34674
1611.000	12.82941	-9.17540	13.22911	-9.34008
1612.000	12.82566	-9.13961	13.30215	-9.36937
1613.000	12.81814	-9.14934	13.21974	-9.36494
1614.000	12.84257	-9.20139	13.23848	-9.32276
1615.000	12.84257	-9.12577	13.18789	-9.30391
1616.000	12.81250	-9.15143	13.17289	-9.34219
1617.000	12.82566	-9.13961	13.29466	-9.35080
1618.000	12.84821	-9.16339	13.23848	-9.40005
1619.000	12.78994	-9.11630	13.23286	-9.36256
1620.000	12.81814	-9.16824	13.11478	-9.38775
1621.000	12.81250	-9.15143	13.24410	-9.33952
1622.000	12.84069	-9.15420	13.13728	-9.31334
1623.000	12.81062	-9.15339	13.27407	-9.33838
1624.000	12.80686	-9.18188	13.20101	-9.35999
1625.000	12.84445	-9.14651	13.19538	-9.31683
1626.000	12.83317	-9.17905	13.24222	-9.29433
1627.000	12.82941	-9.16028	13.20663	-9.38429
1628.000	12.84633	-9.15022	13.24410	-9.30746
1629.000	12.81250	-9.13252	13.22724	-9.33826
1630.000	12.79746	-9.11225	13.20288	-9.32598
1631.000	12.80310	-9.13285	13.16727	-9.34429
1632.000	12.78994	-9.14845	13.17289	-9.35917
1633.000	12.80874	-9.11185	13.17664	-9.37977
1634.000	12.80310	-9.14231	13.18227	-9.39275
1635.000	12.83881	-9.09565	13.12228	-9.29692
1636.000	12.85385	-9.12915	13.25908	-9.35026
1637.000	12.83881	-9.15049	13.21225	-9.34637
1638.000	12.82941	-9.12057	13.11290	-9.35575
1639.000	12.82754	-9.16413	13.12415	-9.31383
1640.000	12.81814	-9.14177	13.20475	-9.34665
1641.000	12.85009	-9.14441	13.16352	-9.34820
1642.000	12.83881	-9.13725	13.14665	-9.33374
1643.000	12.81814	-9.18526	13.29841	-9.32615
1644.000	12.82566	-9.15096	13.21225	-9.30299
1645.000	12.82941	-9.15839	13.20663	-9.33150
1646.000	12.85948	-9.21212	13.22911	-9.30236
1647.000	12.81814	-9.16635	13.24222	-9.34336
1648.000	12.78994	-9.11630	13.26096	-9.33699
1649.000	12.83693	-9.13165	13.17102	-9.30642
1650.000	12.83129	-9.13563	13.29841	-9.33369
1651.000	12.85197	-9.14813	13.20475	-9.35420
1652.000	12.79934	-9.14055	13.16352	-9.35575
1653.000	12.84633	-9.14644	13.21225	-9.35203
1654.000	12.84257	-9.17304	13.25534	-9.30892
1655.000	12.80686	-9.16865	13.20101	-9.32982
1656.000	12.85009	-9.11038	13.26283	-9.37086
1657.000	12.87827	-9.15664	13.17852	-9.32689
1658.000	12.83693	-9.16379	13.31526	-9.40279
1659.000	12.82378	-9.13968	13.27781	-9.39668
1660.000	12.83317	-9.11665	13.14665	-9.35072
1661.000	12.78806	-9.12204	13.30403	-9.39191
1662.000	12.83881	-9.14860	13.24597	-9.39977
1663.000	12.85573	-9.13476	13.21038	-9.34833
1664.000	12.84069	-9.11450	13.26096	-9.38035
1665.000	12.81626	-9.16831	13.20850	-9.37102
1666.000	12.82754	-9.14522	13.29279	-9.36784
1667.000	12.81062	-9.18742	13.34708	-9.36200
1668.000	12.80874	-9.11563	13.12603	-9.36281
1669.000	12.82190	-9.12273	13.28905	-9.39060
1670.000	12.83881	-9.11078	13.13728	-9.38502
1671.000	12.80874	-9.11374	13.22911	-9.34762
1672.000	12.81626	-9.13239	13.18414	-9.35874
1673.000	12.81626	-9.16075	13.20101	-9.31851
1674.000	12.80498	-9.14413	13.18414	-9.37571
1675.000	12.82566	-9.16987	13.20101	-9.32982
1676.000	12.80122	-9.12914	13.18601	-9.33416
1677.000	12.82002	-9.09443	13.29841	-9.38459
1678.000	12.82378	-9.14535	13.21038	-9.40300
1679.000	12.81062	-9.11367	13.24972	-9.36381
1680.000	12.82378	-9.14724	13.24597	-9.37904
1681.000	12.81626	-9.09078	13.26283	-9.36897
1682.000	12.80874	-9.12320	13.19726	-9.40161
1683.000	12.77866	-9.10535	13.36205	-9.35766
1684.000	12.77490	-9.15277	13.20101	-9.41844
1685.000	12.82754	-9.10740	13.30215	-9.40140
1686.000	12.77866	-9.10724	13.34708	-9.32808
1687.000	12.81626	-9.12671	13.32275	-9.33089
1688.000	12.79370	-9.08780	13.23660	-9.41143
1689.000	12.79746	-9.11982	13.21974	-9.38191
1690.000	12.78806	-9.12582	13.24597	-9.36018
1691.000	12.80310	-9.10827	13.30777	-9.39365
1692.000	12.81814	-9.14745	13.27219	-9.42327
1693.000	12.81626	-9.10402	13.24222	-9.41311
1694.000	12.81626	-9.12671	13.28530	-9.39828
1695.000	12.81814	-9.13043	13.30964	-9.34646
1696.000	12.82941	-9.15271	13.23286	-9.31542
1697.000	12.80310	-9.12907	13.29466	-9.40923
1698.000	12.80498	-9.15548	13.32649	-9.36656
1699.000	12.80498	-9.15170	13.27781	-9.41175
1700.000	12.78618	-9.09374	13.24972	-9.39586
1701.000	12.79558	-9.09908	13.32836	-9.37968
1702.000	12.77302	-9.09042	13.30777	-9.41815
1703.000	12.81626	-9.12104	13.31339	-9.39155
1704.000	12.81626	-9.08700	13.27032	-9.35738
1705.000	12.80874	-9.10618	13.29466	-9.35834
1706.000	12.82754	-9.11307	13.30403	-9.40322
1707.000	12.84633	-9.08782	13.32088	-9.33661
1708.000	12.82754	-9.08660	13.14290	-9.35652
1709.000	12.81250	-9.10415	13.30028	-9.36567
1710.000	12.83693	-9.12408	13.31339	-9.35386
1711.000	12.79746	-9.11036	13.18976	-9.40567
1712.000	12.81438	-9.09463	13.23848	-9.37178
1713.000	12.82566	-9.10558	13.26283	-9.38405
1714.000	12.82002	-9.08308	13.23473	-9.37758
1715.000	12.83505	-9.09768	13.29092	-9.33398
1716.000	12.82190	-9.13408	13.21974	-9.31969
1717.000	12.82941	-9.08653	13.24410	-9.38288
1718.000	12.84821	-9.10288	13.25534	-9.38245
1719.000	12.85009	-9.10281	13.24035	-9.33589
1720.000	12.82754	-9.13766	13.28156	-9.35884
1721.000	12.82941	-9.12813	13.23660	-9.30020
1722.000	12.82941	-9.10544	13.28717	-9.33977
1723.000	12.81250	-9.12685	13.20288	-9.35992
1724.000	12.84445	-9.13516	13.26845	-9.35745
1725.000	12.84633	-9.11997	13.26283	-9.31053
1726.000	12.82754	-9.14900	13.27968	-9.33817
1727.000	12.81814	-9.11530	13.25908	-9.38985
1728.000	12.83317	-9.14313	13.22162	-9.34225
1729.000	12.78806	-9.11069	13.31526	-9.37452
1730.000	12.81062	-9.11367	13.27032	-9.40827
1731.000	12.80874	-9.07780	13.25534	-9.37491
1732.000	12.82378	-9.13779	13.28905	-9.38494
1733.000	12.82002	-9.10578	13.25721	-9.34845
1734.000	12.81438	-9.15892	13.27968	-9.35702
1735.000	12.84257	-9.11065	13.30028	-9.38263
1736.000	12.82941	-9.14515	13.30777	-9.40496
1737.000	12.83317	-9.15258	13.28343	-9.38327
1738.000	12.78054	-9.10339	13.21787	-9.37821
1739.000	12.81062	-9.10989	13.19913	-9.35064
1740.000	12.79182	-9.11813	13.24410	-9.38665
1741.000	12.80874	-9.09672	13.26283	-9.38217
1742.000	12.80686	-9.13083	13.26845	-9.34802
1743.000	12.80686	-9.10435	13.27968	-9.35137
1744.000	12.84069	-9.12206	13.22536	-9.37416
1745.000	12.80310	-9.10827	13.25159	-9.35809
1746.000	12.80310	-9.09125	13.24222	-9.37729
1747.000	12.77114	-9.08292	13.18976	-9.36985
1748.000	12.79746	-9.02523	13.16352	-9.37083
1749.000	12.77490	-9.05630	13.21225	-9.33883
1750.000	12.78430	-9.10704	13.23098	-9.35886
1751.000	12.82754	-9.09605	13.18976	-9.35665
1752.000	12.82566	-9.13205	13.23098	-9.40976
1753.000	12.82378	-9.12455	13.23848	-9.37555
1754.000	12.82566	-9.11881	13.17664	-9.34960
1755.000	12.77490	-9.09035	13.29466	-9.35457
1756.000	12.80686	-9.08165	13.23660	-9.38882
1757.000	12.80310	-9.12529	13.27594	-9.38167
1758.000	12.78242	-9.08441	13.27968	-9.41545
1759.000	12.79746	-9.12549	13.26845	-9.37253
1760.000	12.78994	-9.09171	13.13540	-9.38509
1761.000	12.80310	-9.10070	13.18227	-9.37201
1762.000	12.77866	-9.11859	13.28530	-9.33796
1763.000	12.77302	-9.10934	13.23473	-9.36438
1764.000	12.75045	-9.07230	13.25534	-9.31835
1765.000	12.73540	-9.06904	13.13728	-9.33598
1766.000	12.76926	-9.07542	13.27968	-9.34383
1767.000	12.76361	-9.13048	13.17852	-9.36084
1768.000	12.75609	-9.09291	13.19726	-9.33751
1769.000	12.78242	-9.14116	13.26470	-9.31234
1770.000	12.76361	-9.11156	13.22536	-9.34965
1771.000	12.77490	-9.09981	13.24784	-9.44305
1772.000	12.76549	-9.07366	13.22911	-9.40041
1773.000	12.77490	-9.09035	13.22911	-9.37967
1774.000	12.78430	-9.10326	13.27407	-9.33838
1775.000	12.78430	-9.11461	13.30215	-9.38633
1776.000	12.77866	-9.14129	13.29279	-9.39988
1777.000	12.77490	-9.11305	13.26845	-9.39892
1778.000	12.78430	-9.09759	13.16165	-9.41239
1779.000	12.75609	-9.09669	13.27407	-9.31764
1780.000	12.76926	-9.09244	13.27968	-9.35891
1781.000	12.77114	-9.05643	13.19913	-9.41285
1782.000	12.81814	-9.09449	13.18227	-9.35127
1783.000	12.77866	-9.11859	13.28343	-9.36442
1784.000	12.75045	-9.10635	13.21974	-9.36306
1785.000	12.77866	-9.10724	13.16352	-9.41609
1786.000	12.75045	-9.13283	13.16352	-9.35952
1787.000	12.77114	-9.14345	13.16727	-9.38578
1788.000	12.77678	-9.10731	13.27032	-9.36869
1789.000	12.75609	-9.11750	13.22911	-9.39475
1790.000	12.78054	-9.14500	13.17664	-9.32130
1791.000	12.74857	-9.10642	13.21038	-9.33324
1792.000	12.75045	-9.10635	13.23848	-9.38874
1793.000	12.74481	-9.08763	13.18414	-9.40400
1794.000	12.75609	-9.13831	13.25534	-9.33909
1795.000	12.73352	-9.08425	13.29654	-9.39031
1796.000	12.76549	-9.08312	13.21600	-9.34812
1797.000	12.74669	-9.10270	13.25908	-9.40116
1798.000	12.75233	-9.04385	13.28530	-9.33419
1799.000	12.77866	-9.10535	13.17664	-9.32885
1800.000	12.76549	-9.09068	13.22536	-9.37416
1801.000	12.69402	-9.08374	13.18227	-9.35881
1802.000	12.75421	-9.08730	13.15790	-9.32389
1803.000	12.74105	-9.04235	13.23848	-9.33973
1804.000	12.73540	-9.06904	13.15415	-9.34667
1805.000	12.74669	-9.10270	13.24784	-9.31863
1806.000	12.75421	-9.12892	13.28156	-9.31736
1807.000	12.75045	-9.01931	13.19351	-9.35085
1808.000	12.73917	-9.04809	13.27781	-9.36463
1809.000	12.72224	-9.05815	13.20475	-9.33345
1810.000	12.72224	-9.05815	13.20850	-9.36348
1811.000	12.74293	-9.06121	13.15227	-9.31278
1812.000	12.73164	-9.08242	13.15602	-9.31830
1813.000	12.70907	-9.08889	13.17477	-9.37230
1814.000	12.75609	-9.05128	13.15227	-9.38446
1815.000	12.72600	-9.03720	13.27032	-9.32344
1816.000	12.75609	-9.08534	13.16727	-9.33863
1817.000	12.70531	-9.07956	13.25721	-9.36919
1818.000	12.73917	-9.09351	13.15415	-9.35798
1819.000	12.69213	-9.07813	13.22911	-9.31745
1820.000	12.68085	-9.05960	13.12790	-9.31369
1821.000	12.58107	-9.04982	13.08102	-9.27391
1822.000	12.48688	-9.00950	13.00033	-9.18624
1823.000	12.36998	-9.01917	12.94589	-9.21466
1824.000	12.15666	-8.88593	12.71471	-9.13410
1825.000	11.85024	-8.79132	12.38130	-9.10027
1826.000	11.49568	-8.55663	11.99219	-8.88370
1827.000	11.08882	-8.42919	11.59436	-8.73272
1828.000	10.70183	-8.23522	11.14973	-8.64506
1829.000	10.21622	-7.95625	10.52038	-8.41239
1830.000	9.72913	-7.66970	9.92107	-8.09986
1831.000	9.25794	-7.42735	9.47158	-7.85078
1832.000	8.77776	-7.09663	8.85499	-7.54380
1833.000	8.34280	-6.69144	8.42793	-7.26003
1834.000	7.78463	-6.28028	7.88746	-6.97870
1835.000	7.33001	-5.99035	7.38641	-6.59385
1836.000	6.96409	-5.56508	6.87642	-6.23836
1837.000	6.59955	-5.19316	6.51955	-5.86761
1838.000	6.15826	-4.90714	6.11136	-5.56472
1839.000	5.80627	-4.59775	5.75735	-5.29364
1840.000	5.50085	-4.19069	5.26766	-4.97177
1841.000	5.16178	-3.85783	5.00094	-4.67472
1842.000	4.85572	-3.53786	4.58474	-4.35830
1843.000	4.53760	-3.27071	4.21722	-3.95980
1844.000	4.25655	-2.97523	3.92610	-3.86443
1845.000	4.07169	-2.63345	3.73125	-3.58459
1846.000	3.72731	-2.35514	3.58555	-3.20925
1847.000	3.53828	-2.08202	3.29007	-2.83986
1848.000	3.36297	-1.86421	3.11269	-2.66198
1849.000	3.14226	-1.60264	2.97272	-2.30935
1850.000	3.04764	-1.28116	2.74593	-2.08757
1851.000	2.86821	-1.12447	2.69070	-1.67874
1852.000	2.70253	-0.89418	2.56246	-1.49025
1853.000	2.54273	-0.72340	2.40657	-1.22224
1854.000	2.42828	-0.49690	2.36315	-0.99179
1855.000	2.29802	-0.22065	2.23486	-0.78717
1856.000	2.19735	-0.01590	2.17169	-0.59241
1857.000	2.08679	0.13917	2.08087	-0.40756
1858.000	2.05323	0.28033	2.03743	-0.17297
1859.000	2.01966	0.47716	1.86168	-0.06761
1860.000	2.02163	0.63620	1.97622	0.06561
1861.000	2.02163	0.75348	1.96437	0.15906
1862.000	1.97424	0.88868	1.93475	0.27438
1863.000	1.95450	0.89068	1.87353	0.23065
1864.000	1.97029	1.04372	1.92685	0.34199
1865.000	1.98412	1.07551	1.91105	0.36386
1866.000	1.98017	1.00993	1.96437	0.44735
1867.000	1.95845	0.95230	2.03151	0.37974
1868.000	1.95055	0.86881	2.08087	0.23857
1869.000	1.95647	0.78731	2.10061	0.12923
1870.000	1.94660	0.68195	2.11838	0.05368
1871.000	1.95845	0.58851	2.18748	-0.02982
1872.000	1.93475	0.54875	2.19735	-0.13319
1873.000	1.85971	0.48118	2.21314	-0.27632
1874.000	1.81626	0.45137	2.32565	-0.31606
1875.000	1.79256	0.37780	2.22104	-0.26638
1876.000	1.73725	0.39173	2.17958	-0.36380
1877.000	1.73133	0.36588	2.16971	-0.24850
1878.000	1.65034	0.44146	2.11641	-0.29225
1879.000	1.64244	0.49317	2.07297	-0.30617
1880.000	1.62861	0.59060	2.02163	-0.23262
1881.000	1.60491	0.62242	1.94857	-0.00596
1882.000	1.54169	0.68607	1.85773	0.03181
1883.000	1.58120	0.79940	1.97227	0.12327
1884.000	1.54959	0.86303	1.86958	0.21872
1885.000	1.53971	0.94257	1.77676	0.35792
1886.000	1.52391	1.03005	1.74515	0.38974
1887.000	1.54762	1.07775	1.72145	0.48320
1888.000	1.54169	1.08173	1.66812	0.53492
1889.000	1.53576	1.16125	1.69577	0.67012
1890.000	1.55947	1.13937	1.75898	0.66214
1891.000	1.57132	1.21093	1.72935	0.66414
1892.000	1.52391	1.13343	1.73923	0.65618
1893.000	1.61873	1.20096	1.73923	0.70987
1894.000	1.58318	1.19303	1.79848	0.63429
1895.000	1.61676	1.18705	1.82811	0.64422
1896.000	1.58515	1.16918	1.81626	0.58458
1897.000	1.56737	1.10359	1.84193	0.53487
1898.000	1.60688	1.07971	1.82613	0.52493
1899.000	1.63454	1.11349	1.83008	0.49510
1900.000	1.64639	1.16318	1.82416	0.41359
1901.000	1.64837	1.11150	1.95647	0.41355
1902.000	1.68590	1.05979	1.89920	0.43345
1903.000	1.64639	1.06577	1.88143	0.38773
1904.000	1.68590	1.08166	1.97819	0.33005
1905.000	1.65232	1.04987	1.96832	0.34595
1906.000	1.67997	1.03594	1.92685	0.45333
1907.000	1.65232	1.06776	1.95845	0.41753
1908.000	1.63256	1.00018	1.91698	0.41555
1909.000	1.66417	1.00811	2.00189	0.32606
1910.000	1.67207	1.01209	1.87748	0.42153
1911.000	1.66219	0.95046	1.96042	0.38771
1912.000	1.67207	0.95245	1.93475	0.39567
1913.000	1.67997	1.01009	1.92685	0.33006
1914.000	1.70960	0.96436	1.90315	0.38772
1915.000	1.70762	0.95442	1.98807	0.31016
1916.000	1.66022	1.01408	1.93475	0.37181
1917.000	1.65627	0.95047	1.97029	0.30221
1918.000	1.62664	0.98627	1.91105	0.28831
1919.000	1.65627	0.93854	2.00189	0.42348
1920.000	1.67800	0.96636	1.83996	0.34200
1921.000	1.66812	0.95841	1.90118	0.38971
1922.000	1.67800	0.98425	1.94067	0.34397
1923.000	1.69380	0.98822	1.91895	0.40959
1924.000	1.65824	0.92661	1.82811	0.34797
1925.000	1.68195	0.94250	1.92488	0.36982
1926.000	1.66022	0.96239	1.88735	0.38574
1927.000	1.61281	0.95247	1.91105	0.33602
1928.000	1.70367	0.98026	1.79256	0.40962
1929.000	1.63454	0.96837	1.87156	0.39170
1930.000	1.56737	0.95051	1.86366	0.33007
1931.000	1.60096	1.01411	1.89723	0.31416
1932.000	1.65232	0.97631	1.93080	0.34198
1933.000	1.65429	0.96240	1.89130	0.40562
1934.000	1.66812	0.97233	1.93080	0.42947
1935.000	1.62861	0.96638	1.89920	0.33205
1936.000	1.62664	0.98627	1.87551	0.36983
1937.000	1.68787	1.02003	1.82218	0.27440
1938.000	1.69972	1.03990	1.86958	0.30422
1939.000	1.66022	0.97233	1.93672	0.28830
1940.000	1.66812	0.97829	1.83206	0.38575
1941.000	1.69182	0.98623	1.87156	0.39369
1942.000	1.66022	1.01209	1.79453	0.31020
1943.000	1.66614	1.02998	1.93278	0.39964
1944.000	1.67800	1.02401	1.89723	0.36983
1945.000	1.70960	1.03592	1.94857	0.30818
1946.000	1.69380	0.98822	1.85971	0.38773
1947.000	1.65034	0.97830	1.92883	0.38970
1948.000	1.66219	1.00414	1.96832	0.30420
1949.000	1.67800	1.02401	1.88143	0.31018
1950.000	1.62664	0.97831	1.88143	0.32211
1951.000	1.61676	1.06778	1.83403	0.28832
1952.000	1.69380	0.97828	1.85576	0.33405
1953.000	1.67997	1.03395	1.83403	0.39171
1954.000	1.68392	1.04190	1.89723	0.38375
1955.000	1.65824	1.00812	1.87353	0.31615
1956.000	1.69182	1.00611	1.80638	0.34400
1957.000	1.63849	1.00018	1.90315	0.37181
1958.000	1.65232	1.04788	1.86563	0.33404
1959.000	1.65034	1.00613	1.89723	0.43345
1960.000	1.65429	1.01210	1.74515	0.39571
1961.000	1.65429	0.98824	1.78071	0.39968
1962.000	1.66812	1.01408	1.96042	0.44735
1963.000	1.67207	0.97034	1.84193	0.37779
1964.000	1.67602	0.98425	1.80441	0.31218
1965.000	1.60688	0.97037	1.85378	0.29229
1966.000	1.68392	1.00810	1.83996	0.32808
1967.000	1.68392	0.94846	1.87353	0.34398
1968.000	1.63651	0.97632	1.81823	0.36587
1969.000	1.68787	1.00214	1.79651	0.43149
1970.000	1.67800	0.95841	1.88143	0.32609
1971.000	1.69380	0.98226	1.94067	0.36385
1972.000	1.70367	0.97629	1.87551	0.38176
1973.000	1.67207	0.98028	1.86958	0.39170
1974.000	1.69972	0.93454	1.93080	0.31415
1975.000	1.68590	0.94449	1.86366	0.29428
1976.000	1.65824	0.94649	1.90513	0.33205
1977.000	1.69775	0.94846	1.89525	0.36983
1978.000	1.71355	0.94646	1.83996	0.26247
1979.000	1.65824	0.92661	1.99399	0.29028
1980.000	1.64244	0.96041	1.84786	0.34797
1981.000	1.68985	0.93852	1.86958	0.28036
1982.000	1.63256	0.92264	1.82218	0.29627
1983.000	1.69972	0.92460	1.87353	0.30621
1984.000	1.68392	0.93256	1.83798	0.31019
1985.000	1.63849	0.90077	1.82811	0.32013
1986.000	1.67800	0.93058	1.86366	0.34399
1987.000	1.65824	0.95047	1.80243	0.26844
1988.000	1.69380	0.92858	1.87946	0.34995
1989.000	1.67602	0.97431	1.88933	0.32410
1990.000	1.68195	0.96238	1.86366	0.37182
1991.000	1.66614	0.92263	1.87156	0.35989
1992.000	1.67207	0.93257	1.85576	0.30223
1993.000	1.67009	0.92064	1.86168	0.29428
1994.000	1.68787	0.99617	1.82021	0.35195
1995.000	1.66417	0.93655	1.86563	0.30820
1996.000	1.69972	0.98027	1.90710	0.27240
1997.000	1.67404	0.94648	1.89328	0.24059
1998.000	1.68392	0.91467	1.80638	0.33406
1999.000	1.67404	0.94847	1.85576	0.27837
2000.000	1.66417	0.92859	1.83008	0.25650
2001.000	1.67009	0.91666	1.83008	0.33007
2002.000	1.66812	0.90871	1.79651	0.28435
2003.000	1.68195	0.92660	1.88735	0.21872
2004.000	1.69182	0.93454	1.86958	0.30621
2005.000	1.63256	0.89282	1.87946	0.34796
2006.000	1.68195	0.92660	1.89525	0.30421
2007.000	1.71355	0.98225	1.93278	0.30818
2008.000	1.68392	0.92461	1.83996	0.32212
2009.000	1.67404	0.94847	1.90118	0.23860
2010.000	1.64441	0.90475	1.80836	0.33008
2011.000	1.67009	0.96438	1.84391	0.30820
2012.000	1.66219	0.91865	1.86761	0.31217
2013.000	1.70170	0.90870	1.84391	0.30224
2014.000	1.64441	0.91667	1.87551	0.36983
2015.000	1.69380	0.97232	1.85773	0.28633
2016.000	1.65232	0.91667	1.85378	0.30820
2017.000	1.67800	0.90871	1.83403	0.31417
2018.000	1.66614	0.89082	1.79058	0.30026
2019.000	1.69182	0.91466	1.82811	0.34598
2020.000	1.67009	0.92461	1.77083	0.33804
2021.000	1.66219	0.87293	1.81033	0.37780
2022.000	1.64837	0.93059	1.90315	0.35193
2023.000	1.63454	0.89680	1.85971	0.39568
2024.000	1.68195	0.96437	1.75700	0.29628
2025.000	1.67009	0.92461	1.81231	0.36587
2026.000	1.67602	0.92064	1.81033	0.33008
2027.000	1.68195	0.90274	1.84391	0.29627
2028.000	1.70367	0.95044	1.83403	0.30820
2029.000	1.68195	0.92660	1.82021	0.26446
2030.000	1.68195	0.88087	1.85181	0.25451
2031.000	1.65232	0.93258	1.72145	0.31021
2032.000	1.69972	0.94448	1.73923	0.29828
2033.000	1.72145	0.91664	1.83996	0.34200
2034.000	1.66614	0.91269	1.82021	0.36189
2035.000	1.67009	0.91070	1.86168	0.31615
2036.000	1.70762	0.94845	1.83798	0.34001
2037.000	1.67800	0.91666	1.78268	0.25651
2038.000	1.71553	0.94646	1.82416	0.22668
2039.000	1.68985	0.95840	1.84786	0.28633
2040.000	1.66614	0.86696	1.83008	0.31019
2041.000	1.67009	0.92263	1.83008	0.23861
2042.000	1.67602	0.90871	1.86168	0.23861
2043.000	1.69182	0.93454	1.82416	0.26645
2044.000	1.68392	0.93654	1.87551	0.21474
2045.000	1.69380	0.88484	1.87748	0.27240
2046.000	1.63651	0.87890	1.83206	0.27241
2047.000	1.68985	0.92262	1.86761	0.34200
2048.000	1.67009	0.95642	1.85181	0.31814
2049.000	1.69380	0.91466	1.79453	0.32213
2050.000	1.70762	0.93653	1.82218	0.31815
2051.000	1.65627	0.88088	1.86168	0.32808
2052.000	1.68392	0.88882	1.88735	0.25252
2053.000	1.71948	0.90272	1.85971	0.22071
2054.000	1.60886	0.94651	1.80836	0.21674
2055.000	1.67009	0.92263	1.85378	0.31615
2056.000	1.64639	0.88288	1.86366	0.26445
2057.000	1.64639	0.89480	1.94660	0.24058
2058.000	1.63059	0.89879	1.90315	0.29825
2059.000	1.64441	0.91667	1.81428	0.33405
2060.000	1.63256	0.93258	1.89723	0.39567
2061.000	1.66614	0.92859	1.84588	0.32212
2062.000	1.64639	0.88884	1.85773	0.29030
2063.000	1.62466	0.90674	1.89723	0.35989
2064.000	1.65232	0.90872	1.79651	0.26049
2065.000	1.59305	0.87097	1.86563	0.27638
2066.000	1.65627	0.91468	1.83206	0.33007
2067.000	1.66417	0.91070	1.80046	0.29827
2068.000	1.66022	0.97631	1.84193	0.29428
2069.000	1.72540	0.92459	1.74515	0.26845
2070.000	1.67009	0.94450	1.84193	0.37580
2071.000	1.64244	0.91270	1.75898	0.35395
2072.000	1.64639	0.92661	1.86563	0.32211
2073.000	1.62664	0.87891	1.85181	0.34598
2074.000	1.60886	0.87892	1.82021	0.33803
2075.000	1.62861	0.92463	1.82613	0.33008
2076.000	1.59503	0.86302	1.89723	0.32807
2077.000	1.64639	0.93258	1.79651	0.33406
2078.000	1.65232	0.91468	1.79651	0.37184
2079.000	1.64244	0.86101	1.74318	0.33208
2080.000	1.68392	0.92063	1.84983	0.22668
2081.000	1.67404	0.88087	1.86366	0.31018
2082.000	1.61478	0.89283	1.88341	0.43345
2083.000	1.67009	0.93058	1.83601	0.31218
2084.000	1.62466	0.88288	1.89920	0.36386
2085.000	1.60688	0.88687	1.83996	0.28832
2086.000	1.64046	0.90872	1.84983	0.31814
2087.000	1.64244	0.90276	1.82218	0.26645
2088.000	1.62664	0.90277	1.79058	0.29031
2089.000	1.67009	0.88883	1.88538	0.31813
2090.000	1.59700	0.86898	1.86168	0.39171
2091.000	1.64441	0.84908	1.92488	0.32012
2092.000	1.67997	0.88882	1.82218	0.31019
2093.000	1.63849	0.90276	1.87946	0.33603
2094.000	1.62664	0.89282	1.84391	0.33803
2095.000	1.64441	0.87095	1.83206	0.41955
2096.000	1.64046	0.86101	1.82021	0.40961
2097.000	1.66812	0.89082	1.87748	0.35790
2098.000	1.71355	0.88881	1.85576	0.39568
2099.000	1.68590	0.97431	1.80441	0.31616
2100.000	1.59305	0.92664	1.82811	0.40166
2101.000	1.51601	0.84317	1.66812	0.32811
2102.000	1.37375	0.82731	1.62071	0.24659
2103.000	1.18208	0.76771	1.44093	0.17700
2104.000	0.98050	0.72202	1.24927	0.13127
2105.000	0.68994	0.60671	0.99631	0.06564
2106.000	0.30841	0.45755	0.64448	-0.21484
2107.000	-0.02570	0.30438	0.34993	-0.37997
2108.000	-0.36376	0.11141	0.01977	-0.56299
2109.000	-0.73145	-0.05570	-0.27085	-0.79174
2110.000	-1.11094	-0.21084	-0.58715	-0.88916
2111.000	-1.42710	-0.29832	-0.96864	-1.06209
2112.000	-1.70367	-0.39572	-1.18406	-1.13558
2113.000	-1.88933	-0.49509	-1.37968	-1.16134
2114.000	-2.07495	-0.55666	-1.64046	-1.24269
2115.000	-2.20722	-0.60829	-1.80638	-1.24656
2116.000	-2.41447	-0.65590	-1.84786	-1.20678
2117.000	-2.46380	-0.63799	-2.05718	-1.28413
2118.000	-2.61573	-0.62202	-2.05125	-1.29010
2119.000	-2.68675	-0.64980	-2.16576	-1.24828
2120.000	-2.74001	-0.65176	-2.24275	-1.41511
2121.000	-2.68083	-0.70743	-2.37105	-1.47060
2122.000	-2.65519	-0.76705	-2.37697	-1.54409
2123.000	-2.62757	-0.91807	-2.38881	-1.58976
2124.000	-2.59798	-0.97373	-2.41841	-1.76052
2125.000	-2.51511	-1.09300	-2.40263	-1.82607
2126.000	-2.36710	-1.09908	-2.28223	-1.86991
2127.000	-2.30000	-1.16471	-2.19143	-1.94549
2128.000	-2.18550	-1.19262	-2.11443	-1.86814
2129.000	-2.06507	-1.17682	-1.95252	-1.85641
2130.000	-1.95055	-1.18684	-1.76095	-1.86852
2131.000	-1.77083	-1.05179	-1.56737	-1.72964
2132.000	-1.67404	-1.05383	-1.51008	-1.70187
2133.000	-1.62071	-0.98627	-1.32831	-1.65828
2134.000	-1.56737	-0.84314	-1.31250	-1.51520
2135.000	-1.56737	-0.78946	-1.21567	-1.46557
2136.000	-1.48637	-0.72785	-1.23544	-1.36219
2137.000	-1.49428	-0.63041	-1.16429	-1.30458
2138.000	-1.59503	-0.60056	-1.20184	-1.28667
2139.000	-1.63651	-0.57072	-1.20975	-1.29660
2140.000	-1.66614	-0.52100	-1.27298	-1.30850
2141.000	-1.81626	-0.51499	-1.50218	-1.24874
2142.000	-1.93278	-0.51695	-1.52589	-1.26860
2143.000	-1.99794	-0.55470	-1.63256	-1.29239
2144.000	-2.08482	-0.59045	-1.67800	-1.42751
2145.000	-2.10456	-0.59044	-1.78663	-1.42544
2146.000	-2.14800	-0.66994	-1.86761	-1.48499
2147.000	-2.21709	-0.67786	-1.85576	-1.53666
2148.000	-2.26644	-0.76728	-1.84588	-1.53468
2149.000	-2.28815	-0.74938	-2.01571	-1.60009
2150.000	-2.28026	-0.79509	-1.97424	-1.58821
2151.000	-2.32763	-0.80103	-2.04730	-1.60204
2152.000	-2.36710	-0.83877	-2.03151	-1.63385
2153.000	-2.29013	-0.79111	-2.00386	-1.56235
2154.000	-2.26841	-0.82292	-2.01769	-1.61797
2155.000	-2.27039	-0.79311	-2.02558	-1.58220
2156.000	-2.28815	-0.85272	-2.02558	-1.59213
2157.000	-2.27039	-0.81100	-2.00979	-1.63585
2158.000	-2.26052	-0.79510	-2.09666	-1.61193
2159.000	-2.22104	-0.86071	-2.04138	-1.59808
2160.000	-2.22104	-0.88655	-2.02558	-1.53452
2161.000	-2.20919	-0.87066	-2.00584	-1.60407
2162.000	-2.22696	-0.88059	-2.00189	-1.62394
2163.000	-2.23683	-0.89052	-1.92488	-1.65382
2164.000	-2.22696	-0.89251	-1.97029	-1.64583
2165.000	-2.20130	-0.84284	-2.00781	-1.58420
2166.000	-2.20722	-0.86271	-1.91303	-1.55846
2167.000	-2.14997	-0.84485	-1.96437	-1.58226
2168.000	-2.10456	-0.76537	-1.86168	-1.64792
2169.000	-2.14800	-0.83094	-1.94462	-1.58625
2170.000	-2.13023	-0.85878	-1.91698	-1.56641
2171.000	-2.12036	-0.78723	-1.88933	-1.60617
2172.000	-2.08087	-0.79719	-1.93475	-1.58427
2173.000	-2.09666	-0.87669	-1.86563	-1.62805
2174.000	-2.13615	-0.82101	-1.84588	-1.65389
2175.000	-2.08679	-0.83893	-1.89130	-1.54656
2176.000	-2.11246	-0.84885	-1.85971	-1.55056
2177.000	-2.12233	-0.81307	-1.88143	-1.61810
2178.000	-2.05718	-0.80913	-1.85773	-1.55057
2179.000	-2.12628	-0.83095	-1.91303	-1.57436
2180.000	-2.13812	-0.83293	-1.87353	-1.58234
2181.000	-2.11048	-0.83096	-1.92290	-1.56442
2182.000	-2.12036	-0.83891	-1.83996	-1.52276
2183.000	-2.12825	-0.83294	-1.79651	-1.56453
2184.000	-2.14207	-0.80312	-1.82218	-1.64199
2185.000	-2.10654	-0.81109	-1.85576	-1.57441
2186.000	-2.09074	-0.75941	-1.97424	-1.56039
2187.000	-2.06310	-0.77135	-1.90513	-1.58827
2188.000	-2.13220	-0.81704	-1.86366	-1.58633
2189.000	-2.10851	-0.78326	-1.82021	-1.53868
2190.000	-2.10456	-0.75344	-1.88538	-1.58631
2191.000	-2.14010	-0.80113	-1.78268	-1.57249
2192.000	-2.07495	-0.76539	-1.84983	-1.55057
2193.000	-2.10456	-0.77730	-1.91303	-1.57635
2194.000	-2.09074	-0.76737	-1.85773	-1.47903
2195.000	-2.10851	-0.78922	-1.85971	-1.56249
2196.000	-2.12825	-0.81505	-1.83798	-1.56449
2197.000	-2.11246	-0.80313	-1.89130	-1.53067
2198.000	-2.17169	-0.81900	-1.89525	-1.49887
2199.000	-2.11048	-0.78326	-1.90908	-1.49886
2200.000	-2.11838	-0.78127	-1.86366	-1.55652
2201.000	-2.10654	-0.79121	-1.91698	-1.54058
2202.000	-2.14405	-0.79914	-1.87353	-1.59625
2203.000	-2.11246	-0.78922	-1.84588	-1.55654
2204.000	-2.09074	-0.76935	-1.84193	-1.53468
2205.000	-2.14207	-0.76933	-1.85971	-1.53070
2206.000	-2.13023	-0.73554	-1.86563	-1.55453
2207.000	-2.17366	-0.78521	-1.92685	-1.53858
2208.000	-2.17366	-0.80708	-1.82021	-1.55060
2209.000	-2.14800	-0.76932	-1.84983	-1.55653
2210.000	-2.15392	-0.79914	-1.90908	-1.58032
2211.000	-2.13812	-0.78921	-1.91500	-1.57237
2212.000	-2.12233	-0.78325	-1.92488	-1.56640
2213.000	-2.11246	-0.79518	-1.92093	-1.58230
2214.000	-2.14997	-0.80113	-1.89920	-1.56444
2215.000	-2.11048	-0.80313	-1.79256	-1.59831
2216.000	-2.14010	-0.80511	-1.89130	-1.59226
2217.000	-2.11048	-0.77729	-1.86563	-1.57639
2218.000	-2.12233	-0.81307	-1.91303	-1.58429
2219.000	-2.12233	-0.80710	-1.87946	-1.57240
2220.000	-2.12628	-0.76934	-1.85576	-1.64594
2221.000	-2.12628	-0.80114	-1.93278	-1.52467
2222.000	-2.08877	-0.80315	-1.91500	-1.53065
2223.000	-2.11641	-0.83493	-1.94857	-1.53856
2224.000	-2.09864	-0.79519	-1.94067	-1.60811
2225.000	-2.12430	-0.77132	-1.89328	-1.60815
2226.000	-2.12430	-0.80313	-1.96635	-1.60808
2227.000	-2.11641	-0.81108	-1.88538	-1.51478
2228.000	-2.09864	-0.75941	-1.90315	-1.56245
2229.000	-2.13418	-0.82300	-1.90118	-1.56046
2230.000	-2.11246	-0.80115	-1.87748	-1.54061
2231.000	-2.06705	-0.79719	-1.85773	-1.52275
2232.000	-2.05125	-0.77931	-1.86366	-1.58235
2233.000	-2.05915	-0.80714	-1.86366	-1.52870
2234.000	-2.11641	-0.84288	-1.87748	-1.57439
2235.000	-2.06705	-0.82105	-1.88538	-1.55253
2236.000	-2.08877	-0.82899	-1.88341	-1.58233
2237.000	-2.07297	-0.78924	-1.93278	-1.54851
2238.000	-2.11443	-0.82500	-1.91698	-1.59820
2239.000	-2.09864	-0.77730	-1.89723	-1.51477
2240.000	-2.05718	-0.80714	-1.92290	-1.60813
2241.000	-2.12430	-0.82698	-1.90315	-1.62404
2242.000	-2.08877	-0.81507	-1.86563	-1.58235
2243.000	-2.08087	-0.82501	-1.90908	-1.48893
2244.000	-2.09666	-0.75345	-1.92488	-1.55051
2245.000	-2.09864	-0.79917	-1.89920	-1.59424
2246.000	-2.06902	-0.84490	-1.86563	-1.53665
2247.000	-2.13220	-0.83493	-1.88143	-1.53068
2248.000	-2.05125	-0.81112	-1.91698	-1.59621
2249.000	-2.07889	-0.78327	-1.86366	-1.50287
2250.000	-2.09469	-0.79122	-1.91895	-1.52866
2251.000	-2.11246	-0.83692	-1.92290	-1.49289
2252.000	-2.05520	-0.80316	-1.91500	-1.44719
2253.000	-2.10259	-0.80711	-1.82613	-1.51085
2254.000	-2.08679	-0.82302	-1.83403	-1.50489
2255.000	-2.10259	-0.80711	-1.89130	-1.52868
2256.000	-2.11838	-0.80313	-1.90513	-1.59225
2257.000	-2.10456	-0.76338	-1.92685	-1.60017
2258.000	-2.08087	-0.79122	-1.88933	-1.55054
2259.000	-2.10259	-0.85879	-1.85576	-1.54659
2260.000	-2.06902	-0.77334	-1.83206	-1.51482
2261.000	-2.05718	-0.82701	-1.93278	-1.58030
2262.000	-2.06112	-0.79521	-1.93080	-1.58825
2263.000	-2.13023	-0.80312	-1.90710	-1.58827
2264.000	-2.07692	-0.83297	-1.93672	-1.54851
2265.000	-2.08482	-0.82700	-1.92883	-1.52666
2266.000	-2.07889	-0.81706	-1.84983	-1.60819
2267.000	-2.07889	-0.84887	-1.90513	-1.55251
2268.000	-2.13418	-0.79716	-1.90710	-1.60218
2269.000	-2.10851	-0.83891	-1.94265	-1.53261
2270.000	-2.11443	-0.85282	-1.91895	-1.52071
2271.000	-2.10061	-0.82699	-1.91500	-1.57436
2272.000	-2.09864	-0.87072	-1.86563	-1.51678
2273.000	-2.09074	-0.80116	-1.86563	-1.54857
2274.000	-2.09666	-0.90054	-1.90710	-1.52668
2275.000	-2.05718	-0.82304	-1.88735	-1.58432
2276.000	-2.05718	-0.83497	-1.92488	-1.55448
2277.000	-2.10456	-0.79916	-1.87946	-1.54260
2278.000	-2.10654	-0.81506	-1.89525	-1.64193
2279.000	-2.12036	-0.86475	-1.83996	-1.52873
2280.000	-2.07692	-0.82899	-1.83403	-1.63801
2281.000	-2.09469	-0.84687	-1.80441	-1.55856
2282.000	-2.06902	-0.84689	-1.90315	-1.63199
2283.000	-2.10061	-0.87271	-1.87156	-1.64195
2284.000	-2.09666	-0.87867	-1.88735	-1.57438
2285.000	-2.07100	-0.88863	-1.87551	-1.62406
2286.000	-2.09469	-0.85284	-1.85378	-1.51679
2287.000	-2.11641	-0.83096	-1.91500	-1.66773
2288.000	-2.09666	-0.83693	-1.91500	-1.56840
2289.000	-2.05520	-0.81509	-1.87946	-1.48100
2290.000	-2.09271	-0.87470	-1.95055	-1.56836
2291.000	-2.04533	-0.85286	-1.87551	-1.55651
2292.000	-2.04730	-0.85684	-1.94265	-1.55049
2293.000	-2.06507	-0.82900	-1.89328	-1.63001
2294.000	-2.03546	-0.85485	-1.84983	-1.49692
2295.000	-2.02756	-0.84691	-1.94660	-1.60413
2296.000	-2.07100	-0.84887	-1.82416	-1.55258
2297.000	-2.11838	-0.83891	-1.82416	-1.60623
2298.000	-2.08877	-0.80116	-1.85773	-1.66978
2299.000	-2.08087	-0.87272	-1.85576	-1.53865
2300.000	-2.05520	-0.81310	-1.81231	-1.59829
2301.000	-2.06902	-0.81309	-1.84588	-1.61018
2302.000	-2.08087	-0.83694	-1.83996	-1.61615
2303.000	-2.09074	-0.85284	-1.82218	-1.59232
2304.000	-2.11443	-0.83692	-1.82416	-1.57047
2305.000	-2.11641	-0.85084	-1.91698	-1.55250
2306.000	-2.08482	-0.81110	-1.86958	-1.60221
2307.000	-2.10851	-0.86277	-1.88538	-1.60419
2308.000	-2.07100	-0.85285	-1.89130	-1.54656
2309.000	-2.05125	-0.85882	-1.88341	-1.50286
2310.000	-2.08087	-0.81110	-1.79256	-1.57447
2311.000	-2.02361	-0.81511	-1.91500	-1.55052
2312.000	-2.05125	-0.81907	-1.82613	-1.61815
2313.000	-2.04928	-0.87870	-1.88341	-1.57836
2314.000	-2.06310	-0.86080	-1.91698	-1.52866
2315.000	-2.04335	-0.82702	-1.84391	-1.62012
2316.000	-2.06705	-0.80514	-1.86366	-1.61811
2317.000	-2.03348	-0.77733	-1.87353	-1.60420
2318.000	-2.08482	-0.86079	-1.91500	-1.66575
2319.000	-2.09666	-0.82898	-1.90513	-1.58231
2320.000	-2.07889	-0.85086	-1.93672	-1.60811
2321.000	-2.01769	-0.80318	-1.88143	-1.56048
2322.000	-2.04138	-0.83895	-1.83996	-1.59032
2323.000	-2.04533	-0.82503	-1.91303	-1.58231
2324.000	-2.11443	-0.81108	-1.89525	-1.55848
2325.000	-2.04928	-0.83895	-1.86563	-1.59228
2326.000	-2.09074	-0.84687	-1.83601	-1.56648
2327.000	-2.06705	-0.85086	-1.85971	-1.57043
2328.000	-2.10851	-0.87072	-1.82218	-1.60623
2329.000	-2.07692	-0.84688	-1.88933	-1.60220
2330.000	-2.07297	-0.87670	-1.88143	-1.57439
2331.000	-2.07495	-0.86278	-1.85971	-1.61414
2332.000	-2.10851	-0.84686	-1.90710	-1.57436
2333.000	-2.08877	-0.85681	-1.92093	-1.60217
2334.000	-2.07297	-0.86676	-1.91303	-1.59423
2335.000	-2.05323	-0.82304	-1.91500	-1.59224
2336.000	-2.07297	-0.86875	-1.80836	-1.54862
2337.000	-2.11048	-0.89457	-1.88143	-1.56843
2338.000	-2.01571	-0.85288	-1.88143	-1.62406
2339.000	-2.08679	-0.88464	-1.80836	-1.62015
2340.000	-2.06310	-0.85882	-1.86366	-1.54460
2341.000	-2.05915	-0.84689	-1.89328	-1.63199
2342.000	-2.04335	-0.83497	-1.86168	-1.63997
2343.000	-2.06507	-0.89459	-1.86958	-1.64394
2344.000	-2.04138	-0.87075	-1.79848	-1.64996
2345.000	-2.09469	-0.88066	-1.88735	-1.61213
2346.000	-2.11838	-0.85879	-1.93278	-1.57235
2347.000	-2.10851	-0.87469	-1.84588	-1.59032
2348.000	-2.06112	-0.88068	-1.92093	-1.57634
2349.000	-2.07495	-0.84092	-1.86761	-1.59427
2350.000	-2.10259	-0.84886	-1.91303	-1.59820
2351.000	-2.09469	-0.87271	-1.87748	-1.59426
2352.000	-2.06507	-0.87074	-1.99991	-1.60805
2353.000	-2.08482	-0.84091	-1.89525	-1.58828
2354.000	-2.12825	-0.89058	-1.89130	-1.57835
2355.000	-2.11641	-0.91046	-1.92883	-1.60415
2356.000	-2.08284	-0.85880	-1.91500	-1.55648
2357.000	-2.07692	-0.82700	-1.89130	-1.58233
2358.000	-2.09271	-0.87073	-1.89723	-1.55252
2359.000	-2.05718	-0.81310	-1.82218	-1.61815
2360.000	-2.04928	-0.83298	-1.87353	-1.62208
2361.000	-2.09271	-0.89855	-1.91303	-1.55449
2362.000	-2.07495	-0.86080	-1.87946	-1.56048
2363.000	-2.07495	-0.89260	-1.89920	-1.60417
2364.000	-2.10456	-0.88463	-1.84193	-1.59827
2365.000	-2.09271	-0.88265	-1.85971	-1.56447
2366.000	-2.15589	-0.85081	-1.94660	-1.63989
2367.000	-2.08679	-0.86079	-1.82811	-1.61020
2368.000	-2.11048	-0.91047	-1.85971	-1.52275
2369.000	-2.10456	-0.85283	-1.86761	-1.55453
2370.000	-2.07297	-0.87471	-1.86958	-1.55056
2371.000	-2.12628	-0.88263	-1.85773	-1.59030
2372.000	-2.06112	-0.85484	-1.89920	-1.58828
2373.000	-2.09666	-0.90252	-1.88538	-1.51279
2374.000	-2.04730	-0.87075	-1.88933	-1.59624
2375.000	-2.05915	-0.87869	-1.79256	-1.60427
2376.000	-2.05915	-0.84292	-1.86168	-1.60024
2377.000	-2.04928	-0.83099	-1.80441	-1.61022
2378.000	-2.05915	-0.75545	-1.88341	-1.58631
2379.000	-2.19735	-0.76334	-1.91500	-1.56045
2380.000	-2.21709	-0.61823	-1.96042	-1.33588
2381.000	-2.28420	-0.56255	-2.18353	-1.20852
2382.000	-2.34934	-0.36376	-2.38684	-1.07523
2383.000	-2.61179	-0.17091	-2.75776	-0.85838
2384.000	-2.84060	0.16293	-2.91554	-0.65762
2385.000	-3.05947	0.44896	-3.23883	-0.26020
2386.000	-3.36691	0.84598	-3.48904	0.06950
2387.000	-3.62099	1.30423	-3.81393	0.56572
2388.000	-3.92217	1.69847	-4.13266	0.94046
2389.000	-4.18773	2.01306	-4.52384	1.38601
2390.000	-4.43542	2.43029	-4.77327	1.87283
2391.000	-4.68295	2.71440	-4.94404	2.25241
2392.000	-4.80861	3.04018	-5.10883	2.58019
2393.000	-4.86946	3.30274	-5.26570	2.95112
2394.000	-5.00290	3.49562	-5.34410	3.19566
2395.000	-4.99505	3.61609	-5.33822	3.35758
2396.000	-4.96366	3.65377	-5.32842	3.50961
2397.000	-4.89694	3.72322	-5.24413	3.59100
2398.000	-4.89105	3.68180	-5.14806	3.55208
2399.000	-4.78702	3.68237	-5.02645	3.56854
2400.000	-4.67313	3.60003	-4.95385	3.55906
2401.000	-4.54545	3.47818	-4.89694	3.36385
2402.000	-4.46293	3.38174	-4.71830	3.28568
2403.000	-4.44328	3.26322	-4.56314	3.13023
2404.000	-4.24672	3.19683	-4.51795	2.94452
2405.000	-4.25851	3.02666	-4.40398	2.84407
2406.000	-4.25458	2.89015	-4.31946	2.72565
2407.000	-4.26441	2.79512	-4.23099	2.64084
2408.000	-4.24475	2.74373	-4.11103	2.48479
2409.000	-4.32142	2.62469	-4.15626	2.43316
2410.000	-4.31749	2.56927	-4.00087	2.38410
2411.000	-4.30766	2.52971	-3.97923	2.34057
2412.000	-4.33715	2.50189	-3.93397	2.14649
2413.000	-4.35484	2.43055	-3.91823	2.17032
2414.000	-4.44721	2.41045	-3.93791	2.15243
2415.000	-4.46883	2.40444	-3.99693	2.15029
2416.000	-4.44328	2.42036	-4.01267	2.15620
2417.000	-4.45704	2.47179	-4.02644	2.19976
2418.000	-4.49044	2.49147	-4.01858	2.28895
2419.000	-4.55724	2.52291	-4.11889	2.35206
2420.000	-4.55135	2.65356	-4.27031	2.35952
2421.000	-4.60439	2.66128	-4.32142	2.44452
2422.000	-4.60439	2.68898	-4.35091	2.51966
2423.000	-4.57689	2.83747	-4.35484	2.60082
2424.000	-4.62207	2.81157	-4.40201	2.74118
2425.000	-4.58671	2.89479	-4.43542	2.78459
2426.000	-4.68295	2.90627	-4.45900	2.83001
2427.000	-4.67117	2.99135	-4.57689	2.91461
2428.000	-4.67313	3.07241	-4.57689	2.96802
2429.000	-4.68099	3.08226	-4.64171	2.99148
2430.000	-4.74382	3.08396	-4.62796	2.96583
2431.000	-4.71830	3.12361	-4.64171	3.00136
2432.000	-4.72811	3.13345	-4.68491	3.04666
2433.000	-4.75168	3.14125	-4.65545	2.98944
2434.000	-4.77327	3.13127	-4.65153	2.99737
2435.000	-4.73008	3.11170	-4.61028	3.08455
2436.000	-4.70259	3.12171	-4.57492	3.03922
2437.000	-4.68491	3.13167	-4.59457	2.99167
2438.000	-4.64956	3.14764	-4.62207	2.96387
2439.000	-4.66724	3.09221	-4.54938	2.97406
2440.000	-4.63581	3.17736	-4.59064	2.93631
2441.000	-4.56117	3.17176	-4.55921	2.98787
2442.000	-4.69670	3.04463	-4.47276	2.97833
2443.000	-4.66135	3.12189	-4.51009	2.90301
2444.000	-4.63189	3.11016	-4.45114	2.92105
2445.000	-4.63974	3.01521	-4.52974	2.90689
2446.000	-4.58671	3.09058	-4.45900	2.87948
2447.000	-4.57492	3.02142	-4.49634	2.92681
2448.000	-4.59260	3.04310	-4.38236	2.87977
2449.000	-4.65742	3.01118	-4.45311	2.90720
2450.000	-4.60242	3.03119	-4.38236	2.86988
2451.000	-4.57492	3.03922	-4.37843	2.78481
2452.000	-4.66331	3.02105	-4.50223	2.81995
2453.000	-4.63189	3.00140	-4.42756	2.81628
2454.000	-4.63778	3.02115	-4.43935	2.90527
2455.000	-4.55331	3.02744	-4.45900	2.87948
2456.000	-4.58474	3.04709	-4.39808	2.81837
2457.000	-4.60242	3.03317	-4.42166	2.83016
2458.000	-4.62010	3.02123	-4.43935	2.78458
2459.000	-4.56117	3.00170	-4.43149	2.80637
2460.000	-4.60635	3.00547	-4.39415	2.73923
2461.000	-4.58082	3.03128	-4.41577	2.84997
2462.000	-4.58082	3.01744	-4.44132	2.78655
2463.000	-4.57492	3.00362	-4.41577	2.82424
2464.000	-4.59849	3.03516	-4.39022	2.80851
2465.000	-4.56314	3.06893	-4.44918	2.87556
2466.000	-4.58671	3.00753	-4.40201	2.75701
2467.000	-4.57099	3.01550	-4.36860	2.76307
2468.000	-4.59849	2.99759	-4.43935	2.81030
2469.000	-4.54938	3.02944	-4.40201	2.83221
2470.000	-4.59849	3.02330	-4.42953	2.82617
2471.000	-4.57689	3.04119	-4.45704	2.81617
2472.000	-4.61224	3.03313	-4.40791	2.80251
2473.000	-4.54545	3.00375	-4.43935	2.85581
2474.000	-4.58474	3.08070	-4.38039	2.86197
2475.000	-4.55724	3.02347	-4.44525	2.81819
2476.000	-4.56706	3.04914	-4.47669	2.89325
2477.000	-4.59260	3.03914	-4.45114	2.87753
2478.000	-4.59849	3.07471	-4.49634	2.84570
2479.000	-4.63385	3.01722	-4.49437	2.75865
2480.000	-4.56706	3.00563	-4.43935	2.78260
2481.000	-4.58474	3.06488	-4.54349	2.73274
2482.000	-4.57885	3.05502	-4.43346	2.84594
2483.000	-4.58867	3.02136	-4.51009	2.80212
2484.000	-4.56314	3.03729	-4.43346	2.82418
2485.000	-4.62992	2.98362	-4.45507	2.88345
2486.000	-4.56706	3.05507	-4.48062	2.81608
2487.000	-4.56117	3.00961	-4.47276	2.81809
2488.000	-4.53367	3.06708	-4.53367	2.79807
2489.000	-4.58278	3.05896	-4.53760	2.84356
2490.000	-4.59457	3.03716	-4.47865	2.84972
2491.000	-4.60439	2.99559	-4.47865	2.84972
2492.000	-4.54545	3.08680	-4.45900	2.83991
2493.000	-4.59260	3.01344	-4.52188	2.87131
2494.000	-4.60439	3.05491	-4.46490	2.84582
2495.000	-4.57296	3.04120	-4.41577	2.84205
2496.000	-4.59064	3.03520	-4.46097	2.85573
2497.000	-4.57492	3.04515	-4.45704	2.86959
2498.000	-4.58867	3.06882	-4.43346	2.87166
2499.000	-4.61028	3.01732	-4.47079	2.79831
2500.000	-4.60046	3.06284	-4.43935	2.86570
2501.000	-4.57492	3.02735	-4.41184	2.86977
2502.000	-4.60046	3.02527	-4.45311	2.78848
2503.000	-4.58278	3.01546	-4.49634	2.82987
2504.000	-4.63581	3.04885	-4.45311	2.84389
2505.000	-4.59849	3.03121	-4.45900	2.85771
2506.000	-4.59457	3.00750	-4.44525	2.84589
2507.000	-4.57885	3.04909	-4.47276	2.81611
2508.000	-4.61028	3.05489	-4.43542	2.84000
2509.000	-4.55135	3.05514	-4.42756	2.82816
2510.000	-4.59064	3.02135	-4.46490	2.75282
2511.000	-4.55724	3.03732	-4.46293	2.81219
2512.000	-4.59260	3.06485	-4.51402	2.80408
2513.000	-4.52974	3.00777	-4.47276	2.81809
2514.000	-4.59849	3.04703	-4.55921	2.79203
2515.000	-4.59260	2.99959	-4.47472	2.83391
2516.000	-4.54545	3.00968	-4.42756	2.79650
2517.000	-4.53956	3.03937	-4.44132	2.79249
2518.000	-4.56510	3.02937	-4.51205	2.76452
2519.000	-4.52384	2.99592	-4.48062	2.78640
2520.000	-4.58474	3.03918	-4.47472	2.84776
2521.000	-4.65153	2.98748	-4.43346	2.80637
2522.000	-4.60242	3.02724	-4.45311	2.80827
2523.000	-4.57296	3.06691	-4.52384	2.83174
2524.000	-4.60635	3.05095	-4.51795	2.78032
2525.000	-4.49241	3.04748	-4.41184	2.88164
2526.000	-4.61028	3.02918	-4.47276	2.81809
2527.000	-4.51795	3.09879	-4.43739	2.74501
2528.000	-4.59064	3.04311	-4.49437	2.76063
2529.000	-4.52974	3.05325	-4.44721	2.87359
2530.000	-4.55135	3.06503	-4.49830	2.81601
2531.000	-4.56903	3.02145	-4.47865	2.84972
2532.000	-4.51795	3.04737	-4.46490	2.91308
2533.000	-4.57492	3.04120	-4.44328	2.83205
2534.000	-4.57689	3.02141	-4.49241	2.82988
2535.000	-4.55528	3.04523	-4.38039	2.84021
2536.000	-4.49634	3.02768	-4.57689	2.82164
2537.000	-4.54545	3.03934	-4.51205	2.79617
2538.000	-4.52974	3.03545	-4.54938	2.77624
2539.000	-4.50813	3.01972	-4.51598	2.82781
2540.000	-4.47079	3.02383	-4.44525	2.76279
2541.000	-4.55331	3.06106	-4.46883	2.79040
2542.000	-4.48258	2.96049	-4.47276	2.78445
2543.000	-4.47276	2.98822	-4.48848	2.86353
2544.000	-4.48062	3.01786	-4.44721	2.81819
2545.000	-4.51009	3.05927	-4.49634	2.79030
2546.000	-4.48258	3.09696	-4.44918	2.79246
2547.000	-4.50027	3.01976	-4.48651	2.86948
2548.000	-4.57099	3.03726	-4.48062	2.79036
2549.000	-4.57099	3.02737	-4.46293	2.84385
2550.000	-4.54349	3.01958	-4.41380	2.80248
2551.000	-4.53170	3.05127	-4.52581	2.84558
2552.000	-4.53760	3.06311	-4.43542	2.79647
2553.000	-4.54153	3.05518	-4.46686	2.82800
2554.000	-4.53170	3.08884	-4.47276	2.75675
2555.000	-4.50223	3.02172	-4.41380	2.77082
2556.000	-4.46293	3.04167	-4.53367	2.80005
2557.000	-4.47669	3.06732	-4.49830	2.80216
2558.000	-4.52188	3.04340	-4.53760	2.86136
2559.000	-4.52188	3.01175	-4.47669	2.83390
2560.000	-4.52188	3.00187	-4.47669	2.81016
2561.000	-4.54349	3.01958	-4.43935	2.82020
2562.000	-4.55331	3.02744	-4.48258	2.85960
2563.000	-4.50420	3.05138	-4.47276	2.82205
2564.000	-4.55724	3.05116	-4.37450	2.77888
2565.000	-4.45311	3.04566	-4.51009	2.78431
2566.000	-4.44918	3.03381	-4.42559	2.82816
2567.000	-4.50813	3.01577	-4.47865	2.82598
2568.000	-4.45900	3.01795	-4.41577	2.79654
2569.000	-4.51402	3.01376	-4.45507	2.78848
2570.000	-4.47079	3.07328	-4.47865	2.79630
2571.000	-4.51205	3.00586	-4.46883	2.81019
2572.000	-4.53956	2.99388	-4.50813	2.75859
2573.000	-4.51402	3.02761	-4.38629	2.80061
2574.000	-4.57296	2.99176	-4.45114	2.83202
2575.000	-4.51205	3.01971	-4.45507	2.81816
2576.000	-4.54938	3.01362	-4.47079	2.78842
2577.000	-4.52581	3.00976	-4.50616	2.85555
2578.000	-4.50223	3.02568	-4.49830	2.85162
2579.000	-4.48258	2.99807	-4.51009	2.85356
2580.000	-4.47472	2.98426	-4.53563	2.85543
2581.000	-4.49830	2.98812	-4.47669	2.84973
2582.000	-4.50223	3.00986	-4.48062	2.83982
2583.000	-4.48651	3.05937	-4.41970	2.79653
2584.000	-4.43542	3.06947	-4.48651	2.80814
2585.000	-4.46883	3.05549	-4.53367	2.86731
2586.000	-4.45704	3.03773	-4.53760	2.90488
2587.000	-4.50027	3.00195	-4.47472	2.84380
2588.000	-4.45704	3.00213	-4.45900	2.75680
2589.000	-4.50813	3.02170	-4.55921	2.84941
2590.000	-4.51795	3.00386	-4.43739	2.76084
2591.000	-4.44918	3.00810	-4.45114	2.82806
2592.000	-4.52974	3.02754	-4.49634	2.82987
2593.000	-4.49437	3.02374	-4.49634	2.85163
2594.000	-4.49044	3.03364	-4.47079	2.82007
2595.000	-4.52384	2.99592	-4.42756	2.80243
2596.000	-4.46490	3.04759	-4.48651	2.86354
2597.000	-4.49044	3.01386	-4.39612	2.76495
2598.000	-4.52384	3.00779	-4.52581	2.81195
2599.000	-4.48258	3.03961	-4.46490	2.83197
2600.000	-4.53367	3.00775	-4.46293	2.77460
2601.000	-4.50616	3.00984	-4.50223	2.83380
2602.000	-4.51402	2.97421	-4.51991	2.79219
2603.000	-4.53760	2.98598	-4.45311	2.75089
2604.000	-4.50420	3.03556	-4.44525	2.75289
2605.000	-4.48455	3.05344	-4.51795	2.86342
2606.000	-4.53956	3.02948	-4.52974	2.77038
2607.000	-4.49437	3.04945	-4.53367	2.85149
2608.000	-4.48258	2.99609	-4.51205	2.82783
2609.000	-4.54349	2.98991	-4.50420	2.84171
2610.000	-4.49437	2.98813	-4.46686	2.89725
2611.000	-4.51598	3.05529	-4.49241	2.89121
2612.000	-4.54153	2.97212	-4.46686	2.79239
2613.000	-4.54349	2.99782	-4.50420	2.85951
2614.000	-4.48848	3.02178	-4.50027	2.79622
2615.000	-4.53956	3.00773	-4.46490	2.80625
2616.000	-4.54742	3.00967	-4.48455	2.80221
2617.000	-4.51402	3.04739	-4.49437	2.79822
2618.000	-4.55921	3.01160	-4.42953	2.79649
2619.000	-4.52581	2.97812	-4.39808	2.83222
2620.000	-4.49437	2.99209	-4.48258	2.80618
2621.000	-4.57492	2.99176	-4.51795	2.88518
2622.000	-4.51795	3.00188	-4.44918	2.78256
2623.000	-4.52974	3.00777	-4.54349	2.80990
2624.000	-4.55331	3.02942	-4.43935	2.83800
2625.000	-4.51205	3.03553	-4.45900	2.84188
2626.000	-4.60439	2.98570	-4.43149	2.79450
2627.000	-4.55135	2.95428	-4.42559	2.80442
2628.000	-4.55135	3.05514	-4.46097	2.76273
2629.000	-4.53956	3.03739	-4.44328	2.81029
2630.000	-4.54545	3.03539	-4.42363	2.83213
2631.000	-4.52777	2.98008	-4.50813	2.75266
2632.000	-4.54938	3.02153	-4.41773	2.74706
2633.000	-4.51795	3.00188	-4.45507	2.72120
2634.000	-4.55724	2.99183	-4.47276	2.82007
2635.000	-4.54938	3.02746	-4.45900	2.74691
2636.000	-4.52188	2.97615	-4.43346	2.79647
2637.000	-4.60046	2.98769	-4.47079	2.78050
2638.000	-4.56314	3.03136	-4.53367	2.78620
2639.000	-4.61814	2.98366	-4.46097	2.81813
2640.000	-4.54545	3.01957	-4.44328	2.72718
2641.000	-4.57689	2.96604	-4.47079	2.79040
2642.000	-4.51009	3.03751	-4.46097	2.81616
2643.000	-4.38432	3.03803	-4.35484	2.86207
2644.000	-4.33715	2.99272	-4.33518	2.95316
2645.000	-4.16610	3.11012	-4.25851	2.90993
2646.000	-4.07759	3.14608	-4.06775	3.01948
2647.000	-3.99300	3.20576	-3.89462	3.09532
2648.000	-3.82770	3.31126	-3.73716	3.21662
2649.000	-3.50677	3.39358	-3.55798	3.41911
2650.000	-3.24671	3.49740	-3.33341	3.44960
2651.000	-3.06341	3.62862	-3.07721	3.48411
2652.000	-2.85835	3.69261	-2.89385	3.60345
2653.000	-2.68281	3.80001	-2.65716	3.69126
2654.000	-2.54273	3.86177	-2.56838	3.79047
2655.000	-2.51116	3.95683	-2.38289	3.83849
2656.000	-2.45394	3.94513	-2.39868	3.78502
2657.000	-2.52892	3.98051	-2.35921	3.74752
2658.000	-2.56444	4.00809	-2.44604	3.81853
2659.000	-2.70253	3.94040	-2.48946	3.77289
2660.000	-2.89976	3.91799	-2.70648	3.69705
2661.000	-3.00229	3.92356	-2.79129	3.65325
2662.000	-3.20139	3.81012	-2.91554	3.56182
2663.000	-3.31174	3.76026	-3.10678	3.47610
2664.000	-3.39646	3.78565	-3.21715	3.52125
2665.000	-3.47526	3.64889	-3.28415	3.46758
2666.000	-3.60130	3.58313	-3.50874	3.35597
2667.000	-3.64659	3.58889	-3.53631	3.36577
2668.000	-3.61509	3.52968	-3.65644	3.33763
2669.000	-3.66431	3.49586	-3.55010	3.32020
2670.000	-3.59146	3.47636	-3.55404	3.29842
2671.000	-3.57570	3.41905	-3.43783	3.22757
2672.000	-3.54025	3.43699	-3.41222	3.31871
2673.000	-3.47132	3.45702	-3.44768	3.30473
2674.000	-3.41419	3.43942	-3.26051	3.27963
2675.000	-3.36494	3.49105	-3.30189	3.28543
2676.000	-3.41025	3.48495	-3.22306	3.40248
2677.000	-3.32947	3.53866	-3.21518	3.48563
2678.000	-3.30583	3.49125	-3.15605	3.37499
2679.000	-3.37085	3.50685	-3.13832	3.39880
2680.000	-3.30189	3.54667	-3.16788	3.41454
2681.000	-3.26839	3.53096	-3.10875	3.47609
2682.000	-3.30189	3.54074	-3.12255	3.46813
2683.000	-3.22306	3.56871	-3.13437	3.59672
2684.000	-3.20533	3.61230	-3.07327	3.60089
2685.000	-3.23292	3.60627	-3.06341	3.51582
2686.000	-3.25854	3.60222	-3.13437	3.48788
2687.000	-3.19941	3.63211	-3.07129	3.45642
2688.000	-3.22109	3.62214	-3.13634	3.57693
2689.000	-3.17379	3.68363	-3.10875	3.53547
2690.000	-3.19350	3.60245	-3.05749	3.52772
2691.000	-3.16788	3.59858	-3.08312	3.44253
2692.000	-3.14423	3.67385	-3.13832	3.46412
2693.000	-3.12649	3.64423	-3.09101	3.56719
2694.000	-3.17971	3.61833	-3.04172	3.51392
2695.000	-3.12452	3.63435	-3.03384	3.54957
2696.000	-3.19547	3.66180	-3.08509	3.55533
2697.000	-3.16591	3.68168	-3.06538	3.57519
2698.000	-3.21912	3.64589	-3.13240	3.56111
2699.000	-3.19744	3.61827	-3.07129	3.55736
2700.000	-3.16788	3.67179	-3.01609	3.55754
2701.000	-3.21912	3.67556	-3.16788	3.58671
2702.000	-3.22109	3.68346	-3.13240	3.49976
2703.000	-3.21912	3.66567	-3.10086	3.50185
2704.000	-3.19350	3.67565	-3.14029	3.56108
2705.000	-3.22306	3.64983	-3.21715	3.52520
2706.000	-3.17576	3.61834	-3.11466	3.53545
2707.000	-3.25460	3.62795	-3.14029	3.49578
2708.000	-3.22701	3.63399	-3.13043	3.53539
2709.000	-3.19350	3.65389	-3.18759	3.50156
2710.000	-3.30189	3.62581	-3.14226	3.48192
2711.000	-3.20336	3.64001	-3.17379	3.54118
2712.000	-3.28612	3.58827	-3.10481	3.50183
2713.000	-3.21124	3.68943	-3.08509	3.51971
2714.000	-3.23095	3.61221	-3.14029	3.42849
2715.000	-3.31765	3.59212	-3.16591	3.55308
2716.000	-3.23489	3.63198	-3.13240	3.52351
2717.000	-3.19153	3.66379	-3.15803	3.48978
2718.000	-3.22898	3.61815	-3.08706	3.47221
2719.000	-3.29795	3.62384	-3.18759	3.47979
2720.000	-3.21518	3.60238	-3.11269	3.49191
2721.000	-3.24080	3.58448	-3.05355	3.48221
2722.000	-3.20730	3.55690	-3.08115	3.46035
2723.000	-3.25460	3.58641	-3.11860	3.44835
2724.000	-3.19350	3.56684	-3.13240	3.51362
2725.000	-3.22701	3.62014	-3.10086	3.48601
2726.000	-3.23095	3.58451	-3.04764	3.46640
2727.000	-3.20730	3.56481	-3.08312	3.51378
2728.000	-3.20336	3.60044	-3.10678	3.46818
2729.000	-3.20927	3.62812	-3.16985	3.42839
2730.000	-3.17971	3.61437	-3.11269	3.49389
2731.000	-3.20336	3.62418	-3.14620	3.50368
2732.000	-3.18365	3.66579	-3.14423	3.51754
2733.000	-3.21912	3.64786	-3.10283	3.56517
2734.000	-3.17182	3.63418	-3.15211	3.49178
2735.000	-3.18168	3.65591	-3.13634	3.54725
2736.000	-3.16394	3.63223	-3.08312	3.40492
2737.000	-3.15014	3.65404	-3.11860	3.51960
2738.000	-3.18168	3.64404	-3.13043	3.53143
2739.000	-3.22898	3.58848	-3.13832	3.42849
2740.000	-3.19941	3.59254	-3.22306	3.47769
2741.000	-3.20139	3.61825	-3.03975	3.46840
2742.000	-3.21321	3.64195	-3.09495	3.48999
2743.000	-3.22701	3.66762	-3.10283	3.43653
2744.000	-3.20139	3.65188	-3.07129	3.41287
2745.000	-3.13832	3.67189	-3.10283	3.48799
2746.000	-3.15408	3.60852	-3.13240	3.42653
2747.000	-3.15408	3.65205	-3.05749	3.44261
2748.000	-3.18759	3.63413	-3.10678	3.49193
2749.000	-3.23095	3.61419	-3.12255	3.46021
2750.000	-3.11663	3.65218	-3.13832	3.39880
2751.000	-3.15408	3.64809	-3.11466	3.42263
2752.000	-3.17774	3.58866	-3.07721	3.45442
2753.000	-3.13832	3.63430	-3.10086	3.38507
2754.000	-3.15014	3.62832	-3.04172	3.45058
2755.000	-3.15408	3.63425	-3.09692	3.42665
2756.000	-3.16000	3.61246	-3.12058	3.41074
2757.000	-3.12649	3.60862	-3.15605	3.41062
2758.000	-3.13832	3.66398	-3.12649	3.54530
2759.000	-3.10875	3.63045	-3.08706	3.42668
2760.000	-3.15014	3.62239	-3.12452	3.45625
2761.000	-3.12255	3.62248	-3.14620	3.43836
2762.000	-3.21518	3.61425	-3.08904	3.43459
2763.000	-3.20336	3.62616	-3.14029	3.42057
2764.000	-3.19153	3.58465	-3.10875	3.45036
2765.000	-3.18562	3.62820	-3.16985	3.45412
2766.000	-3.16985	3.65793	-3.06144	3.46833
2767.000	-3.17379	3.64209	-3.06341	3.39904
2768.000	-3.19153	3.68555	-3.08509	3.43262
2769.000	-3.13240	3.62443	-3.09889	3.47613
2770.000	-3.16000	3.65599	-3.11466	3.42857
2771.000	-3.19941	3.65387	-3.11860	3.46023
2772.000	-3.17576	3.67769	-3.08312	3.43263
2773.000	-3.20730	3.61230	-3.09298	3.41478
2774.000	-3.16985	3.66387	-3.19350	3.45206
2775.000	-3.15803	3.63621	-3.11269	3.42858
2776.000	-3.18365	3.59853	-3.06932	3.37329
2777.000	-3.20730	3.56679	-3.04567	3.49213
2778.000	-3.15803	3.63621	-3.06538	3.45446
2779.000	-3.21912	3.55488	-3.08115	3.48806
2780.000	-3.19941	3.62024	-3.11860	3.48002
2781.000	-3.15803	3.61445	-3.10481	3.51173
2782.000	-3.21912	3.59049	-3.09495	3.48999
2783.000	-3.20336	3.57670	-3.04567	3.38524
2784.000	-3.20139	3.59451	-3.09101	3.46428
2785.000	-3.19744	3.59452	-3.10283	3.48403
2786.000	-3.13634	3.64420	-3.09101	3.49990
2787.000	-3.16788	3.63222	-3.14029	3.45026
2788.000	-3.14620	3.67582	-3.15014	3.47793
2789.000	-3.15803	3.64215	-3.08904	3.40688
2790.000	-3.19744	3.62618	-3.09495	3.46822
2791.000	-3.18759	3.58269	-3.05749	3.45053
2792.000	-3.21715	3.60237	-3.11072	3.41275
2793.000	-3.16197	3.61839	-3.10283	3.47413
2794.000	-3.13240	3.63234	-3.10481	3.43256
2795.000	-3.19547	3.62619	-3.01412	3.39326
2796.000	-3.17576	3.61636	-3.08706	3.41678
2797.000	-3.24474	3.61414	-3.06538	3.46832
2798.000	-3.15211	3.60853	-3.12452	3.45031
2799.000	-3.18168	3.58864	-3.10481	3.33358
2800.000	-3.10283	3.60672	-3.08115	3.45639
2801.000	-3.15605	3.58675	-3.09495	3.45635
2802.000	-3.15605	3.58477	-3.06341	3.40498
2803.000	-3.11466	3.66208	-3.05158	3.45846
2804.000	-3.10875	3.66804	-3.04567	3.42879
2805.000	-3.15211	3.59666	-3.01807	3.48430
2806.000	-3.16394	3.65597	-3.12452	3.41666
2807.000	-3.16788	3.59661	-3.08904	3.38510
2808.000	-3.11269	3.59877	-3.04567	3.41098
2809.000	-3.17182	3.66584	-2.97666	3.36566
2810.000	-3.16197	3.61245	-3.08312	3.42471
2811.000	-3.18759	3.61830	-3.14226	3.46411
2812.000	-3.13437	3.63036	-3.10086	3.40684
2813.000	-3.16788	3.59661	-3.09692	3.45832
2814.000	-3.15605	3.63424	-3.03581	3.43476
2815.000	-3.12649	3.60862	-3.05947	3.40499
2816.000	-3.20336	3.60835	-3.01807	3.51993
2817.000	-3.16197	3.59465	-3.02792	3.50407
2818.000	-3.16788	3.65002	-3.01018	3.42494
2819.000	-3.14620	3.63032	-3.02201	3.39719
2820.000	-3.16197	3.62235	-3.10086	3.52362
2821.000	-3.17379	3.57482	-3.11466	3.42263
2822.000	-3.09889	3.54737	-3.02792	3.39321
2823.000	-3.16000	3.59070	-3.00032	3.38340
2824.000	-3.13437	3.59474	-3.06932	3.51778
2825.000	-3.18365	3.60447	-3.07129	3.42475
2826.000	-3.14817	3.58084	-2.93526	3.49842
2827.000	-3.17576	3.61636	-3.05355	3.47429
2828.000	-3.16591	3.64212	-3.04172	3.52579
2829.000	-3.14226	3.60659	-3.02004	3.46055
2830.000	-3.11269	3.64626	-2.97272	3.50820
2831.000	-3.15014	3.60656	-3.03384	3.46050
2832.000	-3.16394	3.60651	-3.04764	3.54952
2833.000	-3.18759	3.60643	-3.07327	3.53558
2834.000	-3.18956	3.60049	-3.03778	3.53372
2835.000	-3.15408	3.65007	-3.09298	3.55135
2836.000	-3.15408	3.62040	-3.06538	3.54550
2837.000	-3.14817	3.56501	-3.12846	3.45821
2838.000	-3.21912	3.61225	-3.07721	3.47818
2839.000	-3.17182	3.63221	-3.06341	3.52968
2840.000	-3.16197	3.63422	-3.05947	3.51584
2841.000	-3.13832	3.59473	-3.03975	3.48226
2842.000	-3.15211	3.62436	-3.09495	3.47218
2843.000	-3.16591	3.57683	-3.06735	3.43268
2844.000	-3.14423	3.59273	-3.06735	3.44060
2845.000	-3.14029	3.59077	-3.01807	3.48430
2846.000	-3.17182	3.61440	-3.12649	3.46416
2847.000	-3.17182	3.59066	-3.11072	3.51171
2848.000	-3.18759	3.55499	-3.03187	3.48624
2849.000	-3.13832	3.62045	-3.03778	3.46247
2850.000	-3.15408	3.59270	-3.02792	3.49417
2851.000	-3.18759	3.58071	-2.99835	3.44082
2852.000	-3.18956	3.55894	-3.07918	3.42473
2853.000	-3.19547	3.64597	-2.99835	3.48239
2854.000	-3.20730	3.59251	-3.06144	3.48021
2855.000	-3.23292	3.59440	-3.09101	3.56521
2856.000	-3.17182	3.57285	-2.97666	3.43891
2857.000	-3.19547	3.59057	-3.01412	3.42691
2858.000	-3.15014	3.64019	-3.05947	3.53959
2859.000	-3.15605	3.59665	-3.06144	3.50000
2860.000	-3.21518	3.55093	-3.02989	3.47833
2861.000	-3.17971	3.60250	-2.96878	3.48644
2862.000	-3.18168	3.59656	-2.93131	3.50635
2863.000	-3.06144	3.61676	-2.81102	3.48890
2864.000	-2.89187	3.59158	-2.63941	3.49138
2865.000	-2.55062	3.67376	-2.35329	3.60105
2866.000	-2.36513	3.58914	-2.10061	3.57790
2867.000	-1.95647	3.65347	-1.71750	3.65198
2868.000	-1.52391	3.69788	-1.24927	3.64681
2869.000	-1.03188	3.69462	-0.83424	3.72058
2870.000	-0.49424	3.74065	-0.24515	3.70707
2871.000	-0.03756	3.81605	0.28073	3.78234
2872.000	0.53773	3.78420	0.78482	3.81570
2873.000	1.15441	3.93408	1.31843	3.80515
2874.000	1.68787	3.97474	1.81231	3.94083
2875.000	2.24473	4.08419	2.35921	3.94738
2876.000	2.81299	4.17136	2.84849	4.03088
2877.000	3.33736	4.27993	3.28218	4.02727
2878.000	3.77850	4.30355	3.73322	3.95619
2879.000	4.07956	4.33358	4.05989	3.91516
2880.000	4.46293	4.33931	4.50420	3.97014
2881.000	4.77916	4.20726	4.82039	3.81247
2882.000	5.18139	4.15345	5.16767	3.78284
2883.000	5.50281	4.12765	5.44600	3.62336
2884.000	5.90800	3.99479	5.78279	3.62521
2885.000	6.14654	3.89264	6.05858	3.49137
2886.000	6.48052	3.77600	6.29503	3.43268
2887.000	6.73607	3.64814	6.55467	3.28321
2888.000	6.97578	3.54206	6.82185	3.07464
2889.000	7.25999	3.43173	7.15880	2.78893
2890.000	7.50692	3.28633	7.37280	2.56514
2891.000	7.66815	3.13179	7.45445	2.56664
2892.000	7.80597	2.94995	7.56910	2.38880
2893.000	7.98249	2.77379	7.78851	2.16519
2894.000	8.12398	2.66474	7.96698	2.03243
2895.000	8.19178	2.56407	8.12398	1.96673
2896.000	8.27698	2.52423	8.20921	1.96041
2897.000	8.39698	2.47631	8.41246	1.92008
2898.000	8.53624	2.43810	8.46662	2.06328
2899.000	8.65801	2.46088	8.59810	2.07633
2900.000	8.74880	2.54663	8.81059	2.12816
2901.000	8.88008	2.63008	8.84920	2.22019
2902.000	8.93989	2.73750	8.96497	2.31955
2903.000	9.02476	2.77018	8.92446	2.44538
2904.000	9.05176	2.92088	9.02283	2.58199
2905.000	9.01705	3.03286	8.87043	2.60268
2906.000	9.03247	3.07583	8.88201	2.73989
2907.000	8.90902	3.14350	8.73914	2.79588
2908.000	8.83954	3.15390	8.69085	2.85706
2909.000	8.71789	3.22550	8.65221	2.80438
2910.000	8.61743	3.25577	8.59037	2.77932
2911.000	8.53624	3.24078	8.49563	2.75842
2912.000	8.42213	3.25155	8.34860	2.81838
2913.000	8.37182	3.22842	8.43374	2.79813
2914.000	8.36989	3.21863	8.41052	2.75706
2915.000	8.34860	3.18545	8.38343	2.71013
2916.000	8.36989	3.21471	8.46662	2.63886
2917.000	8.44148	3.12583	8.54784	2.64026
2918.000	8.52270	3.13498	8.54397	2.64618
2919.000	8.62902	3.09488	8.73528	2.50747
2920.000	8.74687	3.05862	8.81445	2.56188
2921.000	8.87043	3.03604	8.91481	2.53176
2922.000	8.97655	3.01360	8.98812	2.40572
2923.000	9.12693	2.94182	8.92832	2.53362
2924.000	9.22520	2.95668	9.04212	2.50342
2925.000	9.30608	2.96579	9.09995	2.43047
2926.000	9.32726	2.93624	9.10381	2.37749
2927.000	9.42156	2.93544	9.19245	2.37102
2928.000	9.38500	2.96316	9.08453	2.42665
2929.000	9.39077	2.96311	9.09610	2.36970
2930.000	9.34073	2.94591	9.15584	2.32028
2931.000	9.32533	2.96562	9.01319	2.43890
2932.000	9.31571	2.93438	8.97655	2.38618
2933.000	9.23675	2.93112	8.96883	2.41958
2934.000	9.27142	2.94650	9.03440	2.42502
2935.000	9.24253	2.99178	8.99390	2.37430
2936.000	9.18860	2.96286	8.90709	2.41606
2937.000	9.16740	2.97870	8.92060	2.45914
2938.000	9.16355	2.98265	8.89552	2.48481
2939.000	9.13850	2.96132	9.04790	2.49749
2940.000	9.14428	2.94756	8.80286	2.44815
2941.000	9.12693	2.94770	8.94761	2.48642
2942.000	9.12115	2.95950	8.82603	2.51863
2943.000	9.11152	2.95370	8.82410	2.50884
2944.000	9.09610	2.93228	8.85499	2.42622
2945.000	9.07875	2.95201	8.90902	2.53572
2946.000	9.08453	2.96568	8.81638	2.46572
2947.000	9.11537	2.98893	8.84727	2.48121
2948.000	9.10381	3.00470	8.81638	2.50300
2949.000	9.08453	2.95980	8.79321	2.50905
2950.000	9.10381	2.96160	8.78549	2.46004
2951.000	9.09224	3.04790	8.91674	2.51017
2952.000	9.12115	2.99476	8.85692	2.57532
2953.000	9.07682	2.99709	8.80673	2.52858
2954.000	9.10381	3.03213	8.74880	2.52505
2955.000	9.10959	3.01445	8.79707	2.51294
2956.000	9.09802	3.00083	8.78163	2.52875
2957.000	9.09610	2.98910	8.72755	2.55463
2958.000	9.16355	3.03358	8.73528	2.45252
2959.000	9.09417	3.01458	8.83761	2.53425
2960.000	9.10573	3.00273	8.72562	2.46632
2961.000	9.10188	3.03214	8.79321	2.50316
2962.000	9.09031	2.97543	8.82989	2.47740
2963.000	9.10959	3.00857	8.79128	2.51495
2964.000	9.12501	3.00257	8.82024	2.51082
2965.000	9.13850	3.02596	8.83568	2.53034
2966.000	9.12886	3.04954	8.76618	2.49549
2967.000	9.12308	3.01825	8.84340	2.53813
2968.000	9.13850	3.02987	8.80286	2.51094
2969.000	9.11923	3.03396	8.80673	2.54427
2970.000	9.15006	3.01215	8.90709	2.47296
2971.000	9.13657	3.00639	8.79514	2.52866
2972.000	9.14235	3.04355	8.85499	2.55571
2973.000	9.10959	3.03404	8.79900	2.53844
2974.000	9.10959	3.03600	8.77969	2.48951
2975.000	9.10188	3.07916	8.79900	2.44621
2976.000	9.10188	3.03019	8.79321	2.55025
2977.000	9.11152	3.04577	8.84534	2.55578
2978.000	9.10381	3.01254	8.82989	2.50291
2979.000	9.10188	3.02235	8.84147	2.53815
2980.000	9.12693	3.02018	8.77197	2.55040
2981.000	9.13850	2.98482	8.74300	2.49957
2982.000	9.12115	3.00456	8.74300	2.47995
2983.000	9.10573	3.00273	8.76811	2.49352
2984.000	9.13464	2.98290	8.78356	2.51107
2985.000	9.14235	2.98675	8.81638	2.46180
2986.000	9.14813	2.98278	8.80866	2.54426
2987.000	9.17704	3.00996	8.81638	2.48927
2988.000	9.15970	2.98465	8.86657	2.45754
2989.000	9.17511	2.98452	8.88008	2.49276
2990.000	9.19823	3.00391	8.82989	2.52253
2991.000	9.20208	3.03325	8.75459	2.59957
2992.000	9.17896	2.97861	8.82217	2.50885
2993.000	9.15006	3.00040	8.77583	2.44636
2994.000	9.14043	3.03573	8.77390	2.50721
2995.000	9.11923	2.95168	8.85499	2.55375
2996.000	9.11730	2.99871	8.84727	2.52830
2997.000	9.12886	3.05346	8.79514	2.49530
2998.000	9.10188	3.02235	8.85885	2.50271
2999.000	9.12886	3.00841	8.76425	2.53868
3000.000	9.11344	3.03401	8.78356	2.49145
3001.000	9.12886	3.02604	8.76232	2.53084
3002.000	9.13079	2.99076	8.80093	2.52273
3003.000	9.13850	3.03575	8.82603	2.53825
3004.000	9.13079	2.98293	8.84727	2.46159
3005.000	9.13079	3.03386	8.82603	2.50686
3006.000	9.13272	3.02797	8.87815	2.46531
3007.000	9.12693	3.02214	8.78549	2.48751
3008.000	9.11923	3.04963	8.76232	2.56420
3009.000	9.10573	2.99489	8.90709	2.48081
3010.000	9.11730	3.01047	8.89937	2.44358
3011.000	9.09417	3.01850	8.91095	2.49451
3012.000	9.08839	2.96369	8.79707	2.44034
3013.000	9.10381	2.96356	8.81831	2.48141
3014.000	9.08067	2.99902	8.82024	2.49317
3015.000	9.09995	2.97143	8.81638	2.47749
3016.000	9.11537	2.97130	8.80286	2.52272
3017.000	9.08260	2.98137	8.73335	2.50552
3018.000	9.09995	3.01845	8.82024	2.53829
3019.000	9.12308	2.98887	8.82603	2.44800
3020.000	9.08646	2.94999	8.80480	2.43832
3021.000	9.09995	3.01257	8.87236	2.48497
3022.000	9.13079	2.98489	8.83182	2.52840
3023.000	9.10766	2.96157	8.79707	2.50706
3024.000	9.15199	2.99059	8.86464	2.53210
3025.000	9.15199	2.97687	8.74687	2.56038
3026.000	9.13657	3.00443	8.79321	2.46587
3027.000	9.12886	3.01820	8.77776	2.58568
3028.000	9.15391	3.01407	8.81638	2.52066
3029.000	9.13657	2.98484	8.80286	2.49328
3030.000	9.13464	3.00640	8.82024	2.51671
3031.000	9.16355	3.00224	8.75845	2.53283
3032.000	9.12693	3.01822	8.82603	2.47743
3033.000	9.16548	2.99635	8.81638	2.50889
3034.000	9.15199	3.02976	8.82410	2.44801
3035.000	9.15199	2.99842	8.80480	2.57372
3036.000	9.16162	2.98659	8.82603	2.51667
3037.000	9.18089	3.02756	8.81059	2.56975
3038.000	9.13079	3.01819	8.91674	2.45131
3039.000	9.17318	3.02370	8.82217	2.48727
3040.000	9.18089	2.99818	8.80866	2.45007
3041.000	9.15970	2.98465	8.86078	2.57725
3042.000	9.15777	3.01208	8.83761	2.50286
3043.000	9.18667	3.00792	8.82024	2.54026
3044.000	9.14813	2.98474	8.82024	2.53241
3045.000	9.16355	3.03162	8.85692	2.58709
3046.000	9.19438	3.03723	8.84340	2.61268
3047.000	9.17704	2.99038	8.75845	2.52106
3048.000	9.22135	2.98217	8.88587	2.51626
3049.000	9.20208	2.98625	8.77004	2.52883
3050.000	9.20208	2.97646	8.76038	2.47198
3051.000	9.23483	2.98597	8.87622	2.50456
3052.000	9.23290	2.97424	8.83954	2.57544
3053.000	9.21749	3.02724	8.91288	2.47096
3054.000	9.18667	3.00792	8.81445	2.57169
3055.000	9.12886	3.01233	8.74300	2.55452
3056.000	9.02862	3.01513	8.70824	2.56065
3057.000	8.82796	3.00502	8.57877	2.51244
3058.000	8.65221	2.95544	8.52850	2.37530
3059.000	8.34667	2.86748	8.24600	2.24926
3060.000	8.07166	2.73977	7.92625	2.17431
3061.000	7.67980	2.67941	7.63514	2.09706
3062.000	7.28333	2.49869	7.33390	1.90734
3063.000	6.80431	2.30802	6.98552	1.60104
3064.000	6.30089	2.02996	6.61711	1.24480
3065.000	5.75539	1.54159	6.27159	0.92936
3066.000	5.27158	1.19438	5.97255	0.71227
3067.000	4.77524	0.78503	5.49693	0.41981
3068.000	4.32732	0.49196	5.17943	0.10303
3069.000	3.86313	0.26598	4.97543	-0.17837
3070.000	3.49298	-0.06752	4.61028	-0.37875
3071.000	3.22504	-0.37143	4.31159	-0.74587
3072.000	2.90765	-0.65763	4.11889	-0.93849
3073.000	2.66308	-0.82665	3.93397	-1.10934
3074.000	2.51708	-1.00161	3.72338	-1.30209
3075.000	2.30000	-1.24220	3.51071	-1.46116
3076.000	2.07297	-1.36956	3.25657	-1.54094
3077.000	1.93278	-1.55249	2.99046	-1.78351
3078.000	1.85576	-1.63998	2.87018	-2.02584
3079.000	1.65232	-1.68983	2.55457	-2.04224
3080.000	1.52984	-1.80715	2.36118	-2.02269
3081.000	1.37573	-1.90066	2.07297	-2.02308
3082.000	1.29669	-1.90668	1.89920	-2.29332
3083.000	1.26903	-1.93849	1.70565	-2.33327
3084.000	1.23741	-1.95043	1.42315	-2.27402
3085.000	1.33621	-1.94439	1.40339	-2.29390
3086.000	1.43698	-1.93636	1.37178	-2.28995
3087.000	1.47254	-1.88866	1.32238	-2.26816
3088.000	1.63256	-1.77925	1.45081	-2.11313
3089.000	1.79453	-1.71354	1.51798	-2.06143
3090.000	1.91500	-1.62403	1.70565	-1.89043
3091.000	2.02361	-1.44909	1.85378	-1.83268
3092.000	2.21314	-1.42308	2.00584	-1.71929
3093.000	2.30592	-1.35942	2.10851	-1.52848
3094.000	2.37500	-1.28584	2.28618	-1.40910
3095.000	2.48748	-1.23210	2.40065	-1.35535
3096.000	2.49143	-1.16653	2.46972	-1.32747
3097.000	2.49538	-1.20428	2.51313	-1.30558
3098.000	2.47170	-1.13675	2.55852	-1.31149
3099.000	2.42236	-1.20037	2.61573	-1.31739
3100.000	2.34342	-1.17660	2.58614	-1.42667
3101.000	2.26644	-1.23627	2.47170	-1.38706
3102.000	2.13220	-1.28010	2.28618	-1.51439
3103.000	2.00386	-1.31597	2.24275	-1.56211
3104.000	1.90315	-1.43727	2.18748	-1.77669
3105.000	1.72738	-1.48908	2.09271	-1.80063
3106.000	1.69972	-1.50102	2.03348	-1.92781
3107.000	1.63651	-1.57062	1.88341	-2.02133
3108.000	1.51996	-1.63430	1.81626	-2.01544
3109.000	1.48440	-1.69791	1.81428	-2.13857
3110.000	1.47254	-1.66414	1.71158	-2.18039
3111.000	1.43105	-1.75359	1.66022	-2.24994
3112.000	1.45871	-1.76748	1.66812	-2.23802
3113.000	1.36980	-1.77549	1.63059	-2.21225
3114.000	1.43698	-1.73769	1.65824	-2.24200
3115.000	1.40932	-1.79533	1.59305	-2.23810
3116.000	1.43105	-1.77346	1.58120	-2.20039
3117.000	1.48045	-1.79130	1.60491	-2.24603
3118.000	1.46662	-1.78932	1.64046	-2.20032
3119.000	1.47847	-1.78733	1.63651	-2.15863
3120.000	1.48835	-1.75553	1.67800	-2.09305
3121.000	1.53971	-1.80715	1.65034	-2.11294
3122.000	1.52589	-1.74954	1.60293	-2.11894
3123.000	1.50613	-1.77538	1.71750	-2.19428
3124.000	1.56145	-1.74355	1.68985	-2.16254
3125.000	1.55749	-1.76342	1.76491	-2.18827
3126.000	1.62664	-1.72959	1.71158	-2.08705
3127.000	1.56342	-1.74554	1.74515	-2.12872
3128.000	1.60688	-1.73159	1.82218	-2.06310
3129.000	1.62269	-1.75145	1.78268	-2.11080
3130.000	1.63256	-1.75342	1.83206	-2.07897
3131.000	1.68392	-1.70172	1.76688	-2.07905
3132.000	1.63651	-1.72163	1.76886	-2.06713
3133.000	1.68787	-1.75337	1.82218	-1.99955
3134.000	1.64639	-1.73752	1.80243	-2.10681
3135.000	1.66417	-1.75340	1.84786	-2.06108
3136.000	1.63059	-1.74548	1.74120	-1.96786
3137.000	1.64837	-1.73950	1.75305	-2.05126
3138.000	1.65429	-1.73354	1.74120	-1.99964
3139.000	1.68787	-1.66596	1.74515	-1.98573
3140.000	1.66219	-1.63419	1.76688	-1.94003
3141.000	1.68985	-1.65602	1.76688	-1.97379
3142.000	1.64244	-1.68189	1.80638	-2.01347
3143.000	1.64046	-1.72361	1.80243	-1.98170
3144.000	1.64639	-1.73354	1.81033	-2.00155
3145.000	1.65429	-1.65804	1.75305	-1.98969
3146.000	1.61281	-1.73159	1.79058	-1.98767
3147.000	1.63256	-1.68388	1.84193	-1.96775
3148.000	1.65824	-1.64611	1.82416	-1.97770
3149.000	1.66614	-1.62226	1.81033	-1.99360
3150.000	1.62269	-1.66601	1.79256	-1.99164
3151.000	1.61873	-1.68191	1.82021	-2.00750
3152.000	1.62071	-1.66800	1.77873	-1.94001
3153.000	1.62071	-1.68985	1.84983	-2.00150
3154.000	1.61478	-1.68191	1.77676	-1.98172
3155.000	1.59305	-1.71372	1.81428	-1.97573
3156.000	1.61676	-1.72761	1.77083	-1.89632
3157.000	1.57132	-1.69586	1.82218	-1.95784
3158.000	1.60688	-1.75345	1.72540	-1.95199
3159.000	1.64244	-1.72163	1.81033	-1.96381
3160.000	1.57923	-1.74552	1.76491	-1.94797
3161.000	1.66022	-1.71565	1.80638	-1.95786
3162.000	1.56737	-1.74354	1.80836	-2.00949
3163.000	1.63059	-1.72561	1.84983	-2.04122
3164.000	1.57725	-1.76937	1.82416	-1.93798
3165.000	1.61873	-1.77132	1.82811	-1.95585
3166.000	1.60688	-1.67000	1.79453	-2.10285
3167.000	1.58910	-1.75346	1.71553	-2.06719
3168.000	1.62269	-1.67992	1.83996	-1.96974
3169.000	1.59700	-1.73160	1.78071	-2.00754
3170.000	1.63454	-1.69779	1.83798	-1.98563
3171.000	1.68590	-1.69576	1.71750	-1.88049
3172.000	1.62466	-1.67396	1.78861	-1.98568
3173.000	1.60688	-1.67000	1.76095	-1.98174
3174.000	1.60886	-1.71967	1.78268	-2.01945
3175.000	1.66614	-1.66796	1.78861	-2.00356
3176.000	1.60886	-1.68986	1.77478	-1.97775
3177.000	1.63651	-1.68984	1.80046	-1.94396
3178.000	1.59898	-1.67199	1.81231	-2.03332
3179.000	1.61083	-1.71967	1.83996	-2.00747
3180.000	1.62071	-1.72562	1.74318	-2.02347
3181.000	1.65824	-1.75539	1.81626	-2.06311
3182.000	1.64441	-1.72758	1.78663	-1.98767
3183.000	1.64046	-1.71765	1.78268	-2.02144
3184.000	1.63454	-1.71766	1.82416	-2.00551
3185.000	1.62861	-1.67991	1.82613	-2.05515
3186.000	1.64639	-1.73950	1.86366	-2.04319
3187.000	1.65824	-1.67790	1.81823	-2.04523
3188.000	1.67207	-1.66796	1.79453	-2.00951
3189.000	1.63849	-1.73951	1.82416	-2.02338
3190.000	1.65824	-1.67989	1.78466	-1.97774
3191.000	1.62861	-1.71170	1.80638	-1.99957
3192.000	1.58713	-1.67200	1.88341	-1.98558
3193.000	1.60688	-1.69583	1.85181	-2.00349
3194.000	1.64244	-1.72163	1.77478	-1.96187
3195.000	1.66614	-1.68783	1.81626	-2.00750
3196.000	1.67404	-1.68584	1.80836	-2.01744
3197.000	1.64441	-1.71964	1.76688	-2.02344
3198.000	1.66219	-1.68585	1.84588	-2.01144
3199.000	1.63454	-1.68786	1.82218	-1.93997
3200.000	1.63256	-1.71766	1.78663	-1.99959
3201.000	1.59305	-1.70180	1.86563	-1.97964
3202.000	1.66417	-1.72757	1.85576	-1.99157
3203.000	1.66614	-1.68584	1.78663	-1.99562
3204.000	1.61281	-1.73953	1.79651	-2.07703
3205.000	1.64441	-1.68785	1.84786	-1.95980
3206.000	1.63454	-1.70772	1.87946	-2.02133
3207.000	1.66417	-1.69379	1.83403	-2.02337
3208.000	1.58713	-1.71770	1.79453	-2.01944
3209.000	1.63256	-1.67594	1.81428	-1.99757
3210.000	1.59898	-1.73557	1.76886	-1.95194
3211.000	1.62466	-1.71171	1.77873	-1.99761
3212.000	1.63454	-1.68587	1.84786	-2.03527
3213.000	1.65034	-1.70175	1.77478	-2.01946
3214.000	1.62664	-1.66601	1.78466	-1.97377
3215.000	1.62269	-1.68985	1.85576	-2.06902
3216.000	1.67009	-1.68584	1.81428	-1.95785
3217.000	1.62071	-1.67793	1.89525	-1.96571
3218.000	1.62466	-1.70972	1.78466	-2.01945
3219.000	1.65232	-1.71963	1.87551	-2.05708
3220.000	1.63651	-1.70574	1.79256	-2.00157
3221.000	1.65627	-1.65605	1.85378	-2.03129
3222.000	1.65232	-1.69976	1.88341	-1.95579
3223.000	1.68590	-1.68384	1.91500	-2.03717
3224.000	1.64639	-1.71566	1.84786	-1.95980
3225.000	1.65627	-1.68188	1.87748	-2.06105
3226.000	1.67800	-1.69577	1.87551	-2.03325
3227.000	1.69182	-1.67589	1.83008	-2.01146
3228.000	1.67800	-1.67192	1.84786	-2.09484
3229.000	1.70960	-1.65600	1.85576	-1.98958
3230.000	1.66812	-1.64412	1.86958	-2.05907
3231.000	1.65429	-1.70771	1.89328	-1.97762
3232.000	1.64244	-1.66202	1.84391	-2.06705
3233.000	1.65824	-1.65406	1.90710	-2.01137
3234.000	1.64244	-1.71169	1.81033	-2.05318
3235.000	1.64441	-1.69977	1.83996	-2.02535
3236.000	1.64837	-1.68387	1.82416	-1.99160
3237.000	1.65429	-1.71367	1.78071	-2.05917
3238.000	1.63849	-1.66798	1.83601	-2.01741
3239.000	1.62664	-1.64415	1.79256	-2.04725
3240.000	1.65429	-1.70373	1.85181	-2.04321
3241.000	1.61873	-1.67396	1.80638	-1.99361
3242.000	1.65824	-1.71565	1.83206	-2.06110
3243.000	1.63454	-1.70772	1.84193	-1.98165
3244.000	1.67207	-1.69180	1.84193	-2.06506
3245.000	1.65429	-1.69579	1.86168	-2.04121
3246.000	1.68195	-1.72358	1.79651	-2.00554
3247.000	1.65429	-1.68784	1.87353	-2.06304
3248.000	1.62861	-1.67197	1.86958	-2.06304
3249.000	1.63256	-1.70773	1.82613	-2.00153
3250.000	1.64046	-1.75540	1.79453	-1.97972
3251.000	1.61676	-1.68191	1.87748	-1.96374
3252.000	1.62269	-1.69979	1.84786	-1.96576
3253.000	1.63849	-1.69779	1.82218	-1.94394
3254.000	1.61873	-1.69184	1.84588	-2.06903
3255.000	1.59700	-1.72166	1.82218	-2.00749
3256.000	1.63849	-1.70772	1.84588	-2.04123
3257.000	1.65034	-1.67195	1.90315	-2.12257
3258.000	1.67800	-1.67987	1.84786	-2.05115
3259.000	1.61873	-1.73158	1.87156	-1.92005
3260.000	1.68787	-1.72159	1.76886	-2.02741
3261.000	1.62466	-1.71965	1.89920	-1.97364
3262.000	1.66219	-1.69181	1.77083	-2.00755
3263.000	1.66022	-1.67790	1.84193	-2.00747
3264.000	1.65034	-1.67791	1.83403	-1.97173
3265.000	1.61281	-1.71768	1.83008	-1.96181
3266.000	1.64441	-1.70970	1.81231	-1.99757
3267.000	1.57330	-1.71374	1.88933	-2.04912
3268.000	1.64046	-1.73951	1.86958	-1.95183
3269.000	1.60293	-1.72365	1.85576	-2.00944
3270.000	1.64244	-1.72361	1.82021	-1.97373
3271.000	1.63651	-1.72958	1.81626	-1.96579
3272.000	1.60293	-1.71173	1.83996	-2.04123
3273.000	1.62071	-1.70774	1.80836	-2.02141
3274.000	1.61478	-1.68787	1.83206	-2.08493
3275.000	1.59305	-1.68988	1.84786	-1.96179
3276.000	1.63651	-1.70574	1.84588	-2.02733
3277.000	1.61478	-1.69185	1.81231	-1.95785
3278.000	1.65232	-1.68983	1.85576	-2.05512
3279.000	1.64046	-1.75342	1.88933	-2.00543
3280.000	1.64837	-1.70175	1.83996	-2.00350
3281.000	1.62664	-1.73753	1.81626	-2.03729
3282.000	1.60096	-1.73756	1.92685	-1.94978
3283.000	1.63059	-1.74945	1.87551	-1.93991
3284.000	1.57132	-1.74155	1.86366	-2.00546
3285.000	1.60491	-1.74550	1.87353	-2.02729
3286.000	1.60293	-1.74351	1.88735	-2.03522
3287.000	1.60886	-1.72364	1.79453	-2.00355
3288.000	1.60293	-1.74153	1.91895	-2.06299
3289.000	1.58120	-1.71969	1.85181	-2.00746
3290.000	1.59898	-1.72762	1.79058	-2.03335
3291.000	1.58713	-1.68193	1.87156	-2.08290
3292.000	1.65034	-1.68784	1.84786	-2.02534
3293.000	1.64244	-1.71964	1.85773	-2.06902
3294.000	1.62269	-1.71568	1.88933	-2.04515
3295.000	1.58120	-1.69386	1.90315	-2.04712
3296.000	1.60096	-1.69782	1.84983	-1.96377
3297.000	1.60491	-1.68788	1.84983	-1.99555
3298.000	1.63059	-1.70375	1.91303	-2.02328
3299.000	1.61676	-1.72960	1.78466	-1.95590
3300.000	1.60886	-1.72563	1.82416	-2.00153
3301.000	1.59898	-1.74352	1.80046	-2.01348
3302.000	1.60886	-1.69980	1.85378	-2.01739
3303.000	1.54564	-1.72171	1.85181	-1.96774
3304.000	1.57132	-1.70778	1.85971	-1.92205
3305.000	1.60886	-1.75344	1.86761	-1.94985
3306.000	1.55749	-1.71574	1.83008	-2.00153
3307.000	1.58910	-1.74750	1.83798	-1.98960
3308.000	1.60096	-1.67994	1.82218	-2.06310
3309.000	1.57725	-1.71969	1.83996	-2.03925
3310.000	1.57725	-1.75148	1.85378	-2.07696
3311.000	1.56145	-1.73362	1.81231	-2.07105
3312.000	1.57330	-1.73957	1.85971	-2.05511
3313.000	1.56145	-1.71176	1.89328	-2.09280
3314.000	1.55552	-1.74554	1.76886	-2.06117
3315.000	1.53971	-1.69986	1.92093	-2.06695
3316.000	1.56935	-1.71573	1.78268	-2.00158
3317.000	1.57923	-1.69784	1.82416	-2.05515
3318.000	1.52589	-1.74159	1.84391	-2.06903
3319.000	1.56342	-1.75547	1.86563	-2.05709
3320.000	1.53379	-1.73562	1.84588	-2.01938
3321.000	1.51601	-1.74756	1.89920	-2.06102
3322.000	1.54367	-1.74158	1.85773	-2.04916
3323.000	1.57330	-1.76539	1.85181	-2.03129
3324.000	1.57923	-1.71373	1.81823	-2.10282
3325.000	1.52589	-1.77338	1.80243	-2.06511
3326.000	1.51403	-1.79525	1.91303	-2.10271
3327.000	1.54564	-1.73363	1.88933	-2.08288
3328.000	1.54367	-1.78330	1.85181	-2.13455
3329.000	1.52984	-1.73762	1.88933	-2.03919
3330.000	1.55354	-1.78528	1.90315	-2.06102
3331.000	1.54959	-1.79522	1.88341	-2.06700
3332.000	1.54169	-1.75549	1.84983	-2.07697
3333.000	1.56540	-1.73759	1.79058	-2.05519
3334.000	1.57132	-1.75944	1.91698	-2.11064
3335.000	1.52786	-1.72967	1.90118	-2.08882
3336.000	1.52786	-1.76345	1.83206	-2.11472
3337.000	1.50415	-1.71777	1.83996	-2.02733
3338.000	1.52193	-1.72570	1.88538	-2.09678
3339.000	1.57923	-1.74155	1.86958	-1.97765
3340.000	1.55749	-1.70779	1.89328	-2.02727
3341.000	1.54564	-1.75747	1.88341	-2.06104
3342.000	1.53181	-1.74556	1.87748	-2.06899
3343.000	1.55354	-1.72766	1.88143	-2.03721
3344.000	1.53379	-1.72569	1.93870	-2.01332
3345.000	1.51206	-1.74756	1.90315	-2.00939
3346.000	1.52391	-1.73563	1.87156	-2.07297
3347.000	1.57330	-1.71175	1.78861	-2.07704
3348.000	1.51798	-1.73564	1.86366	-2.06901
3349.000	1.53971	-1.78529	1.78268	-1.98966
3350.000	1.49823	-1.77738	1.87551	-2.03325
3351.000	1.57923	-1.68194	1.83996	-2.02336
3352.000	1.53971	-1.71376	1.85181	-2.03129
3353.000	1.55157	-1.71375	1.85378	-2.01937
3354.000	1.54564	-1.70780	1.86366	-1.98560
3355.000	1.54959	-1.70978	1.90315	-2.04116
3356.000	1.57725	-1.68592	1.84391	-2.01740
3357.000	1.53576	-1.76543	1.84588	-2.01740
3358.000	1.50020	-1.74757	1.89328	-2.04316
3359.000	1.53971	-1.71774	1.85971	-2.06306
3360.000	1.56145	-1.73958	1.84193	-2.00946
3361.000	1.51996	-1.71179	1.86761	-2.03127
3362.000	1.55157	-1.72369	1.81823	-2.08693
3363.000	1.55552	-1.68792	1.83008	-2.03132
3364.000	1.56342	-1.70580	1.92093	-2.07490
3365.000	1.52391	-1.74159	1.80836	-2.04127
3366.000	1.49428	-1.74360	1.87748	-2.06105
3367.000	1.51403	-1.71975	1.88933	-2.06501
3368.000	1.53181	-1.71576	1.83601	-2.03528
3369.000	1.54367	-1.73959	1.88933	-2.04515
3370.000	1.57923	-1.71175	1.80638	-2.05120
3371.000	1.53576	-1.76145	1.89130	-2.06898
3372.000	1.51403	-1.75551	1.88143	-1.97962
3373.000	1.55749	-1.68792	1.77083	-2.02344
3374.000	1.51403	-1.73763	1.85378	-2.04916
3375.000	1.51403	-1.70981	1.82021	-2.03331
3376.000	1.52589	-1.75749	1.79848	-2.05717
3377.000	1.53774	-1.69588	1.77478	-2.06315
3378.000	1.51798	-1.79127	1.87353	-2.03524
3379.000	1.57330	-1.67996	1.81626	-2.05318
3380.000	1.51798	-1.71974	1.86761	-2.05709
3381.000	1.50415	-1.69591	1.79848	-2.02738
3382.000	1.51996	-1.75749	1.87551	-1.99552
3383.000	1.55354	-1.72170	1.78071	-2.01747
3384.000	1.51601	-1.73167	1.85773	-2.09483
3385.000	1.52786	-1.74954	1.82021	-1.96777
3386.000	1.52589	-1.75550	1.84391	-1.98165
3387.000	1.51996	-1.70583	1.86366	-2.02731
3388.000	1.49625	-1.68201	1.83008	-1.96776
3389.000	1.53576	-1.69191	1.74515	-2.01949
3390.000	1.53181	-1.76940	1.78071	-2.00357
3391.000	1.50218	-1.72373	1.88735	-2.00146
3392.000	1.49230	-1.71976	1.83206	-2.00947
3393.000	1.52193	-1.69987	1.74318	-1.92217
3394.000	1.51008	-1.73366	1.91895	-2.04313
3395.000	1.48440	-1.74163	1.78663	-2.08896
3396.000	1.50613	-1.72373	1.91105	-1.97562
3397.000	1.56540	-1.69586	1.84786	-2.03328
3398.000	1.52589	-1.70583	1.84983	-2.08094
3399.000	1.51008	-1.75353	1.81428	-1.99757
3400.000	1.50218	-1.73565	1.85181	-2.09087
3401.000	1.55354	-1.70183	1.79651	-2.01547
3402.000	1.56342	-1.71176	1.84588	-2.03924
3403.000	1.51403	-1.72968	1.92488	-2.13645
3404.000	1.50810	-1.71379	1.83601	-2.07698
3405.000	1.48440	-1.73368	1.82811	-2.04522
3406.000	1.47649	-1.77938	1.83996	-1.96378
3407.000	1.49428	-1.75950	1.88933	-2.01735
3408.000	1.48045	-1.72375	1.89920	-2.04514
3409.000	1.50613	-1.69392	1.82021	-1.99955
3410.000	1.53379	-1.70979	1.80441	-2.01744
3411.000	1.53379	-1.72768	1.81033	-2.02339
3412.000	1.51206	-1.69590	1.85181	-1.92007
3413.000	1.50810	-1.67206	1.85971	-1.99752
3414.000	1.50613	-1.73763	1.77676	-2.01946
3415.000	1.53181	-1.69986	1.80046	-1.98170
3416.000	1.50218	-1.74956	1.82021	-1.98565
3417.000	1.56342	-1.75547	1.75108	-2.06318
3418.000	1.51403	-1.72571	1.80243	-1.92013
3419.000	1.47057	-1.73170	1.81428	-2.01942
3420.000	1.47452	-1.73766	1.81626	-1.96976
3421.000	1.51008	-1.69392	1.76688	-1.94400
3422.000	1.50613	-1.74558	1.83798	-1.99159
3423.000	1.53379	-1.73761	1.89920	-1.97762
3424.000	1.51601	-1.70782	1.83601	-1.99159
3425.000	1.48637	-1.70586	1.83008	-2.02139
3426.000	1.45674	-1.72178	1.90118	-2.06301
3427.000	1.50218	-1.74956	1.86366	-1.96971
3428.000	1.49428	-1.71777	1.82613	-2.06111
3429.000	1.51403	-1.73961	1.79848	-2.07901
3430.000	1.49625	-1.74360	1.87946	-1.98955
3431.000	1.48637	-1.74560	1.86958	-2.05510
3432.000	1.49625	-1.75950	1.88341	-2.02927
3433.000	1.50218	-1.75552	1.86563	-1.92403
3434.000	1.49230	-1.74361	1.84193	-2.01343
3435.000	1.48637	-1.76547	1.87748	-1.93395
3436.000	1.46859	-1.75952	1.82416	-1.97373
3437.000	1.49823	-1.75552	1.89328	-2.03919
3438.000	1.48242	-1.73169	1.83206	-1.92605
3439.000	1.51798	-1.77140	1.80046	-1.97177
3440.000	1.47649	-1.70388	1.91500	-2.02526
3441.000	1.49823	-1.72373	1.91105	-1.92795
3442.000	1.48637	-1.71778	1.85971	-2.07894
3443.000	1.47452	-1.77541	1.82218	-1.91415
3444.000	1.44686	-1.75755	1.87156	-1.90813
3445.000	1.46266	-1.70588	1.82613	-1.98564
3446.000	1.48637	-1.72772	1.91895	-2.01135
3447.000	1.47847	-1.74560	1.78466	-1.95987
3448.000	1.48045	-1.71182	1.79651	-1.99759
3449.000	1.50613	-1.74558	1.85773	-2.03327
3450.000	1.51008	-1.76147	1.79651	-1.87643
3451.000	1.47847	-1.78335	1.86168	-1.93397
3452.000	1.47057	-1.72177	1.86366	-1.98759
3453.000	1.52193	-1.78531	1.85181	-1.95980
3454.000	1.47847	-1.74362	1.78663	-2.05718
3455.000	1.51403	-1.71776	1.83996	-1.94789
3456.000	1.51206	-1.75750	1.86761	-1.96772
3457.000	1.48242	-1.74957	1.91303	-2.00540
3458.000	1.49032	-1.69791	1.89723	-1.98159
3459.000	1.48440	-1.73368	1.80243	-1.97375
3460.000	1.45476	-1.74562	1.85971	-2.00348
3461.000	1.47649	-1.79528	1.84588	-1.93597
3462.000	1.52193	-1.75352	1.83601	-1.94591
3463.000	1.50218	-1.75949	1.84786	-1.95384
3464.000	1.50218	-1.76148	1.84588	-2.02931
3465.000	1.51403	-1.77935	1.85378	-2.04916
3466.000	1.49032	-1.73566	1.82021	-2.07502
3467.000	1.51601	-1.77538	1.83601	-2.12067
3468.000	1.48440	-1.72970	1.84983	-1.96774
3469.000	1.49032	-1.73566	1.84588	-2.03924
3470.000	1.49625	-1.75155	1.83403	-1.98762
3471.000	1.48045	-1.75355	1.84786	-2.01144
3472.000	1.44686	-1.75755	1.83206	-1.95187
3473.000	1.46662	-1.70786	1.81823	-1.98367
3474.000	1.51206	-1.75154	1.86168	-1.94390
3475.000	1.48045	-1.75156	1.79256	-2.04327
3476.000	1.50613	-1.74161	1.80046	-2.02738
3477.000	1.49428	-1.72175	1.84193	-1.95583
3478.000	1.50810	-1.75154	1.83206	-1.97173
3479.000	1.51403	-1.76346	1.89328	-2.05507
3480.000	1.44093	-1.75954	1.79848	-2.00752
3481.000	1.46859	-1.75356	1.83996	-1.95385
3482.000	1.46662	-1.78535	1.87551	-2.03325
3483.000	1.50020	-1.77340	1.79256	-1.99164
3484.000	1.49823	-1.76148	1.87946	-2.06105
3485.000	1.46266	-1.78337	1.83206	-2.03330
3486.000	1.46069	-1.81714	1.84786	-1.99753
3487.000	1.48045	-1.75355	1.87748	-2.02332
3488.000	1.47649	-1.72375	1.84588	-1.97569
3489.000	1.46662	-1.77542	1.80836	-1.93204
3490.000	1.47649	-1.73567	1.81428	-1.97771
3491.000	1.44093	-1.79531	1.88538	-1.99749
3492.000	1.42513	-1.74366	1.87156	-1.98162
3493.000	1.50613	-1.76744	1.82021	-2.04920
3494.000	1.45674	-1.78139	1.87353	-1.98956
3495.000	1.50810	-1.74558	1.77478	-1.91221
3496.000	1.41327	-1.75161	1.78663	-1.90227
3497.000	1.48637	-1.75951	1.83601	-1.98563
3498.000	1.45476	-1.79728	1.88538	-1.96373
3499.000	1.44093	-1.77345	1.78268	-1.90823
3500.000	1.44883	-1.77146	1.82416	-1.92805
3501.000	1.42315	-1.79532	1.83403	-1.98762
3502.000	1.47254	-1.81316	1.79651	-1.97376
3503.000	1.46859	-1.80323	1.76886	-2.00755
3504.000	1.43500	-1.80723	1.89328	-1.96968
3505.000	1.47847	-1.78137	1.78466	-2.03732
3506.000	1.47254	-1.80720	1.81626	-2.01544
3507.000	1.46266	-1.78734	1.83601	-2.02734
3508.000	1.45081	-1.80126	1.82811	-1.99756
3509.000	1.42315	-1.86684	1.85378	-2.00349
3510.000	1.44291	-1.83703	1.82416	-1.94791
3511.000	1.45871	-1.79330	1.80243	-1.96581
3512.000	1.43698	-1.82710	1.80441	-1.98368
3513.000	1.46069	-1.79926	1.79058	-1.93206
3514.000	1.43698	-1.80723	1.86168	-1.93794
3515.000	1.43896	-1.79332	1.80836	-1.88635
3516.000	1.45871	-1.82509	1.83601	-1.95187
3517.000	1.50020	-1.78135	1.77873	-1.97179
3518.000	1.47057	-1.80522	1.77676	-2.00953
3519.000	1.45871	-1.82509	1.82811	-1.95585
3520.000	1.43896	-1.83504	1.81626	-1.98963
3521.000	1.46859	-1.79528	1.82613	-1.98961
3522.000	1.46266	-1.83105	1.84391	-1.96775
3523.000	1.43500	-1.83703	1.82613	-1.95982
3524.000	1.43303	-1.81319	1.77281	-1.97577
3525.000	1.44883	-1.82709	1.83601	-2.04322
3526.000	1.49230	-1.81911	1.83206	-2.01344
3527.000	1.47847	-1.83302	1.77281	-1.90625
3528.000	1.46464	-1.84694	1.77873	-1.97576
3529.000	1.46662	-1.78138	1.76886	-2.01947
3530.000	1.46464	-1.82310	1.82021	-1.94394
3531.000	1.37573	-1.85695	1.81033	-1.98169
3532.000	1.43896	-1.79729	1.84786	-1.99753
3533.000	1.42315	-1.83506	1.82416	-1.98564
3534.000	1.40932	-1.82911	1.80441	-2.00950
3535.000	1.42117	-1.83307	1.86168	-2.01936
3536.000	1.46859	-1.84098	1.82218	-1.99359
3537.000	1.40932	-1.82911	1.86168	-2.02135
3538.000	1.41129	-1.81520	1.82218	-2.03530
3539.000	1.43896	-1.88471	1.86761	-1.95779
3540.000	1.46464	-1.82509	1.81428	-2.06112
3541.000	1.42710	-1.88472	1.80441	-1.99758
3542.000	1.44093	-1.86882	1.91303	-2.03519
3543.000	1.42315	-1.88075	1.82811	-2.03728
3544.000	1.43896	-1.83306	1.79058	-2.06512
3545.000	1.45674	-1.81516	1.86958	-2.04914
3546.000	1.50415	-1.83896	1.87946	-2.01339
3547.000	1.53181	-1.82305	2.01571	-1.98145
3548.000	1.62466	-1.75939	2.11838	-1.93962
3549.000	1.81823	-1.70359	2.17761	-1.87799
3550.000	1.98214	-1.64383	2.31579	-1.74277
3551.000	2.16774	-1.54829	2.51511	-1.65316
3552.000	2.44012	-1.43676	2.62165	-1.36505
3553.000	2.74001	-1.34506	2.89976	-1.19593
3554.000	2.97863	-1.15017	3.16197	-1.11821
3555.000	3.34327	-0.96711	3.41222	-0.90748
3556.000	3.54025	-0.82001	3.69975	-0.73849
3557.000	3.78637	-0.63520	3.86313	-0.55576
3558.000	4.05399	-0.47031	4.03431	-0.41674
3559.000	4.18183	-0.29960	4.21526	-0.23809
3560.000	4.33518	-0.08728	4.39415	-0.00992
3561.000	4.46686	0.08330	4.54742	0.02975
3562.000	4.55135	0.22013	4.60635	0.14674
3563.000	4.54153	0.40456	4.72419	0.25973
3564.000	4.59064	0.48187	4.74186	0.35885
3565.000	4.62010	0.53142	4.85572	0.38258
3566.000	4.62796	0.57305	4.89890	0.48562
3567.000	4.63581	0.57106	4.94404	0.47766
3568.000	4.62599	0.64443	4.94404	0.39045
3569.000	4.60832	0.62859	4.98132	0.41818
3570.000	4.51598	0.62867	5.00290	0.46969
3571.000	4.46490	0.66441	4.91068	0.52525
3572.000	4.44918	0.68029	4.82824	0.49162
3573.000	4.38236	0.65258	4.90086	0.62039
3574.000	4.29587	0.71613	4.67706	0.56310
3575.000	4.22116	0.74596	4.57885	0.62465
3576.000	4.22705	0.74595	4.69277	0.62653
3577.000	4.15823	0.75990	4.57885	0.71387
3578.000	4.13463	0.84127	4.52777	0.82298
3579.000	4.13660	0.85515	4.51205	0.76153
3580.000	4.10119	0.89288	4.46686	0.87857
3581.000	4.08939	0.83139	4.52384	0.95583
3582.000	4.04808	0.87112	4.47276	0.91228
3583.000	4.05005	0.89889	4.49241	0.94993
3584.000	4.09923	0.92066	4.46883	0.88849
3585.000	4.08349	0.91472	4.59064	0.91411
3586.000	4.10906	0.92065	4.57885	0.91611
3587.000	4.11103	0.94445	4.59849	0.90022
3588.000	4.16610	0.87892	4.66331	0.97547
3589.000	4.19363	0.84120	4.75364	0.98922
3590.000	4.20739	0.83127	4.65938	0.97746
3591.000	4.23689	0.77966	4.61617	0.91011
3592.000	4.28407	0.78953	4.67706	0.91400
3593.000	4.33125	0.74982	4.64563	0.90215
3594.000	4.33322	0.77163	4.71633	0.91989
3595.000	4.39612	0.76165	4.73793	0.86436
3596.000	4.43935	0.79334	4.82039	0.87417
3597.000	4.52974	0.81307	4.85572	0.83845
3598.000	4.58867	0.78524	4.88713	0.85823
3599.000	4.59653	0.81299	4.91853	0.91368
3600.000	4.65153	0.82086	4.91068	0.92359
3601.000	4.67117	0.87832	4.92049	0.88989
3602.000	4.68884	0.90407	5.00290	0.94724
3603.000	4.68688	0.93579	4.94993	0.99884
3604.000	4.68295	0.98139	4.92638	1.01274
3605.000	4.67313	1.04681	4.89498	1.08611
3606.000	4.64956	1.05081	4.97740	1.08597
3607.000	4.67117	1.16376	4.85965	1.18127
3608.000	4.63581	1.15193	4.82039	1.16351
3609.000	4.63974	1.26093	4.89105	1.24660
3610.000	4.62599	1.31447	4.77131	1.36571
3611.000	4.59260	1.37399	4.82235	1.41118
3612.000	4.55724	1.44937	4.78898	1.39738
3613.000	4.52777	1.51285	4.74775	1.47276
3614.000	4.51402	1.60602	4.61224	1.63553
3615.000	4.41577	1.64984	4.60832	1.65139
3616.000	4.32732	1.69959	4.55724	1.65745
3617.000	4.28604	1.76905	4.42559	1.72909
3618.000	4.17003	1.85653	4.40005	1.86786
3619.000	4.16413	1.98934	4.30570	1.87602
3620.000	4.06972	2.05300	4.26638	1.96728
3621.000	4.01071	2.12053	4.25851	2.02080
3622.000	4.01267	2.18791	4.19756	2.05663
3623.000	4.01858	2.29885	4.20149	2.13984
3624.000	4.02841	2.30873	4.16413	2.17560
3625.000	4.07366	2.36407	4.17789	2.26076
3626.000	4.17003	2.40142	4.22116	2.32996
3627.000	4.17003	2.42321	4.28604	2.28223
3628.000	4.25851	2.49224	4.27031	2.42686
3629.000	4.30766	2.48218	4.41773	2.40262
3630.000	4.37450	2.48988	4.45311	2.45993
3631.000	4.45507	2.52129	4.42756	2.45011
3632.000	4.48455	2.48556	4.50223	2.50529
3633.000	4.55528	2.53084	4.62992	2.52662
3634.000	4.56510	2.53080	4.53956	2.52693
3635.000	4.54349	2.55463	4.57099	2.57037
3636.000	4.57689	2.56837	4.57492	2.57233
3637.000	4.59849	2.61381	4.47276	2.53311
3638.000	4.54742	2.66149	4.48062	2.58454
3639.000	4.51009	2.66360	4.49437	2.62606
3640.000	4.46293	2.72710	4.38236	2.65417
3641.000	4.43935	2.78656	4.38432	2.72739
3642.000	4.39808	2.81837	4.40005	2.69765
3643.000	4.35681	2.82051	4.32929	2.70384
3644.000	4.30963	2.86620	4.37646	2.70565
3645.000	4.27031	2.93165	4.35877	2.81654
3646.000	4.25261	2.91391	4.30373	2.84643
3647.000	4.24278	2.96737	4.23099	2.80118
3648.000	4.23689	2.96739	4.20542	2.95960
3649.000	4.24868	2.94360	4.22509	2.92984
3650.000	4.25261	3.01482	4.21526	2.97935
3651.000	4.27228	3.04244	4.20542	3.04864
3652.000	4.32929	3.06397	4.24278	2.96539
3653.000	4.30963	3.03042	4.38629	3.09143
3654.000	4.34305	3.07578	4.30570	3.02846
3655.000	4.37450	3.06181	4.28014	3.09582
3656.000	4.36663	3.07173	4.26834	3.06224
3657.000	4.33518	3.05010	4.29390	3.01070
3658.000	4.35287	3.03420	4.27817	2.95932
3659.000	4.34305	3.03424	4.26834	3.00486
3660.000	4.32732	2.97298	4.28800	2.99885
3661.000	4.30570	2.97504	4.35287	2.88384
3662.000	4.28604	2.93357	4.24082	2.86250
3663.000	4.29783	2.96716	4.28997	2.89398
3664.000	4.28604	2.93159	4.28800	2.88409
3665.000	4.27424	2.89206	4.32339	2.89385
3666.000	4.29980	2.90383	4.26638	2.84855
3667.000	4.31946	2.87803	4.26245	2.76940
3668.000	4.30963	2.86224	4.23099	2.83681
3669.000	4.32929	2.88393	4.31159	2.85432
3670.000	4.36663	2.84026	4.35484	2.80073
3671.000	4.33911	2.86807	4.30373	2.81675
3672.000	4.34501	2.88585	4.30963	2.78110
3673.000	4.37253	2.92730	4.35287	2.83437
3674.000	4.35287	2.93727	4.31946	2.88001
3675.000	4.34894	2.91947	4.28800	2.85639
3676.000	4.34894	2.97685	4.33518	2.91557
3677.000	4.33518	2.97097	4.27817	2.88808
3678.000	4.31553	2.98094	4.30570	2.86621
3679.000	4.35287	2.98870	4.22312	2.96942
3680.000	4.37253	3.03808	4.30766	2.91370
3681.000	4.28997	3.02852	4.34698	2.96894
3682.000	4.34501	3.05599	4.30570	3.01263
3683.000	4.31356	3.05810	4.31553	2.94532
3684.000	4.32339	3.09762	4.21919	2.95163
3685.000	4.31553	3.09963	4.24672	2.95152
3686.000	4.31553	3.07589	4.23689	2.96146
3687.000	4.32339	3.08575	4.33322	2.95713
3688.000	4.30373	3.10561	4.27817	2.99295
3689.000	4.29194	3.04038	4.30766	2.94338
3690.000	4.30176	3.07397	4.37056	2.87388
3691.000	4.32535	3.05014	4.33125	2.89976
3692.000	4.30176	3.05023	4.30570	2.89985
3693.000	4.32535	3.08377	4.25458	2.92973
3694.000	4.31356	3.06205	4.27031	2.91780
3695.000	4.29194	3.03247	4.22705	2.91796
3696.000	4.33322	3.04615	4.18773	2.95175
3697.000	4.31553	3.06996	4.22509	2.97139
3698.000	4.32929	3.08968	4.26638	2.88615
3699.000	4.33518	3.05603	4.17199	2.93993
3700.000	4.31159	3.06404	4.29194	2.98499
3701.000	4.30963	3.06603	4.30570	2.98691
3702.000	4.29783	3.07596	4.24082	3.01486
3703.000	4.31553	3.13128	4.26048	2.98313
3704.000	4.31749	3.10951	4.27621	2.92767
3705.000	4.28211	3.07207	4.27424	2.91580
3706.000	4.33518	3.10548	4.28604	2.94148
3707.000	4.32929	3.09957	4.22312	2.88433
3708.000	4.28211	3.10174	4.26048	2.89013
3709.000	4.30570	3.09769	4.38039	2.90946
3710.000	4.30373	3.09374	4.27228	2.88811
3711.000	4.29587	3.06213	4.25261	2.91984
3712.000	4.31159	3.05217	4.27817	2.94943
3713.000	4.30570	3.06604	4.18576	2.94582
3714.000	4.27817	3.07802	4.30176	2.93153
3715.000	4.29587	3.07004	4.23885	2.95353
3716.000	4.27228	3.03255	4.21919	2.85664
3717.000	4.25851	3.05634	4.21132	2.92396
3718.000	4.28407	3.07998	4.24082	2.89218
3719.000	4.28997	3.07006	4.31356	2.87608
3720.000	4.31946	3.07588	4.28014	2.89401
3721.000	4.24475	3.05046	4.32535	2.91561
3722.000	4.28604	3.04238	4.23885	2.96738
3723.000	4.28800	3.01863	4.24475	2.89217
3724.000	4.30963	3.10559	4.28604	2.91378
3725.000	4.28800	3.07798	4.21329	2.97540
3726.000	4.30373	3.10166	4.25655	2.95544
3727.000	4.31356	3.10755	4.26245	2.94553
3728.000	4.31159	3.05811	4.24475	2.97132
3729.000	4.30963	3.10163	4.21329	3.00310
3730.000	4.28997	3.09776	4.22312	3.00108
3731.000	4.30373	3.07594	4.26441	2.98311
3732.000	4.32339	3.07191	4.13660	2.98558
3733.000	4.31553	3.08974	4.31553	2.90575
3734.000	4.29390	3.09972	4.18969	2.95174
3735.000	4.26245	3.08402	4.21919	2.92986
3736.000	4.26048	3.08403	4.20149	3.00908
3737.000	4.27424	3.07606	4.18183	2.92011
3738.000	4.29390	3.09774	4.20149	2.97346
3739.000	4.24082	3.06432	4.14446	2.96774
3740.000	4.25458	3.03855	4.20542	3.01104
3741.000	4.29783	3.06212	4.22116	3.02681
3742.000	4.29587	3.06410	4.22902	2.97929
3743.000	4.28014	3.04438	4.27031	3.01277
3744.000	4.27228	3.05629	4.29194	2.98696
3745.000	4.28997	3.06413	4.21919	3.02682
3746.000	4.27424	3.07408	4.28604	3.05821
3747.000	4.29783	3.05025	4.29587	2.96321
3748.000	4.26834	3.04443	4.21132	2.93583
3749.000	4.28014	3.06615	4.25655	2.95149
3750.000	4.28604	3.06414	4.22705	2.96149
3751.000	4.27817	3.03648	4.19953	2.93785
3752.000	4.26048	3.04248	4.18379	3.02300
3753.000	4.25851	3.00490	4.26441	2.98311
3754.000	4.27031	3.02464	4.14446	2.93410
3755.000	4.26048	3.03457	4.28407	2.98897
3756.000	4.22312	3.02680	4.23885	2.98717
3757.000	4.25065	3.01087	4.22509	2.94171
3758.000	4.27228	3.03057	4.23885	2.93770
3759.000	4.26048	2.99302	4.25261	2.88620
3760.000	4.23885	3.02476	4.23492	2.98719
3761.000	4.28014	3.01669	4.24082	2.89020
3762.000	4.29194	3.00081	4.27424	2.90393
3763.000	4.31749	3.02247	4.30176	2.92163
3764.000	4.31749	3.04424	4.21132	2.92396
3765.000	4.29587	3.01267	4.24082	2.91593
3766.000	4.29390	3.04433	4.24475	2.95153
3767.000	4.32339	3.02839	4.32732	2.96308
3768.000	4.29587	3.02454	4.22705	2.94368
3769.000	4.28997	3.03445	4.22116	2.95162
3770.000	4.29783	3.01464	4.28604	2.91972
3771.000	4.30570	3.02648	4.26245	2.82679
3772.000	4.26245	2.97323	4.27031	2.81885
3773.000	4.28211	3.00085	4.19559	2.88443
3774.000	4.25458	2.96535	4.27817	2.83267
3775.000	4.28800	2.99292	4.29587	2.96519
3776.000	4.27424	2.97121	4.24082	2.93176
3777.000	4.28014	2.98701	4.29980	2.93351
3778.000	4.27621	2.94548	4.26441	2.94156
3779.000	4.25065	2.94755	4.25261	2.92776
3780.000	4.27621	2.97515	4.27817	2.89402
3781.000	4.27817	2.92766	4.30963	2.92358
3782.000	4.28014	2.97514	4.27228	2.92966
3783.000	4.31159	2.96315	4.24278	2.94758
3784.000	4.30766	2.97108	4.29587	2.96123
3785.000	4.28997	2.95927	4.28211	2.88411
3786.000	4.30570	2.94734	4.29980	2.88405
3787.000	4.28800	2.99292	4.35091	2.90759
3788.000	4.30373	2.97109	4.24082	2.92978
3789.000	4.29783	2.96320	4.22705	2.87244
3790.000	4.30570	2.94141	4.38236	2.94308
3791.000	4.31749	2.95719	4.27817	2.98108
3792.000	4.25655	2.89806	4.36467	2.87390
3793.000	4.28800	2.95137	4.24672	2.88820
3794.000	4.30766	2.95525	4.27228	2.94351
3795.000	4.28014	2.96525	4.28014	2.88610
3796.000	4.28997	2.93355	4.25261	2.95744
3797.000	4.25065	2.94557	4.22705	2.82692
3798.000	4.29194	2.94739	4.28800	2.93949
3799.000	4.29783	2.93946	4.23689	2.86449
3800.000	4.29194	2.94739	4.22705	2.89025
3801.000	4.29390	2.93749	4.29783	2.90780
3802.000	4.28604	2.91972	4.30373	2.84445
3803.000	4.29783	2.95726	4.30766	2.84840
3804.000	4.26245	2.90397	4.22705	2.92983
3805.000	4.31946	3.00268	4.30373	2.97505
3806.000	4.31159	2.94336	4.24082	2.87635
3807.000	4.30373	2.94735	4.23295	2.98126
3808.000	4.29783	2.93352	4.28014	2.94744
3809.000	4.30963	2.92160	4.29587	2.91572
3810.000	4.28997	2.95136	4.25261	2.91786
3811.000	4.31553	2.97104	4.29390	2.93749
3812.000	4.28014	2.94744	4.24868	2.90996
3813.000	4.30766	2.96712	4.34894	2.95311
3814.000	4.31159	3.02052	4.17593	2.94388
3815.000	4.35681	2.98473	4.33715	2.90369
3816.000	4.27817	2.90985	4.23295	2.89419
3817.000	4.31356	2.95127	4.21526	2.84478
3818.000	4.30176	2.95527	4.27621	2.92767
3819.000	4.32732	2.95913	4.31946	2.87408
3820.000	4.29980	2.95132	4.25655	2.88223
3821.000	4.34305	2.96104	4.30176	2.83061
3822.000	4.34698	2.94520	4.30963	2.84839
3823.000	4.35287	2.96298	4.34108	2.85025
3824.000	4.35484	2.92736	4.26638	2.85251
3825.000	4.37646	2.97872	4.31356	2.85629
3826.000	4.34894	2.95904	4.32339	2.89781
3827.000	4.35287	2.96694	4.31356	2.82265
3828.000	4.32339	2.98486	4.30176	2.89987
3829.000	4.33322	2.94723	4.26638	2.89407
3830.000	4.32535	2.95518	4.29194	2.90188
3831.000	4.35681	2.96495	4.30176	2.90976
3832.000	4.30373	2.93943	4.32929	2.83644
3833.000	4.33911	2.98678	4.27621	2.89205
3834.000	4.30963	2.94337	4.31749	2.90772
3835.000	4.33911	2.97491	4.29980	2.94341
3836.000	4.31553	2.93939	4.29194	2.84845
3837.000	4.32929	2.93934	4.30373	2.88205
3838.000	4.35091	2.98673	4.21526	2.94967
3839.000	4.35287	3.00057	4.30373	2.88007
3840.000	4.36467	2.93128	4.26048	2.90002
3841.000	4.35877	2.91944	4.31356	2.86025
3842.000	4.34894	2.94717	4.33125	2.87205
3843.000	4.32929	2.96308	4.32142	2.91364
3844.000	4.30373	2.94537	4.28997	2.83659
3845.000	4.34501	2.95510	4.34698	2.85023
3846.000	4.34698	2.96103	4.31553	2.89784
3847.000	4.30373	2.92756	4.37253	2.82045
3848.000	4.34698	2.95905	4.35877	2.95703
3849.000	4.31553	2.95126	4.28014	2.89599
3850.000	4.33125	2.98879	4.36074	2.93130
3851.000	4.29783	2.94341	4.27817	2.93557
3852.000	4.32732	3.00265	4.29194	2.90188
3853.000	4.32929	3.00660	4.34108	2.94720
3854.000	4.32339	2.95519	4.29980	2.80093
3855.000	4.28997	2.99686	4.29980	2.88800
3856.000	4.31946	2.97499	4.24082	2.89614
3857.000	4.33911	3.00261	4.26638	2.86042
3858.000	4.34305	3.00061	4.25065	2.82090
3859.000	4.32535	3.02047	4.35484	2.89571
3860.000	4.33518	2.97492	4.33518	2.92744
3861.000	4.30963	2.98492	4.23099	2.88034
3862.000	4.33715	2.99074	4.34108	2.91950
3863.000	4.32929	2.94527	4.29194	2.89793
3864.000	4.36074	2.99856	4.31749	2.94334
3865.000	4.35484	2.97089	4.36860	2.92731
3866.000	4.33518	2.97295	4.26441	2.93365
3867.000	4.32339	2.98091	4.38039	2.87978
3868.000	4.37056	2.95896	4.35484	2.86998
3869.000	4.37646	3.07762	4.27424	2.95933
3870.000	4.37450	3.01236	4.26245	2.95146
3871.000	4.32929	2.99077	4.19166	2.90028
3872.000	4.27817	2.94547	4.19363	2.92006
3873.000	4.18969	2.86466	4.15430	2.78166
3874.000	4.11889	2.78772	4.09333	2.75812
3875.000	3.97136	2.67536	3.99693	2.72280
3876.000	3.79031	2.56896	3.83558	2.55496
3877.000	3.69581	2.48206	3.72141	2.46613
3878.000	3.46935	2.30624	3.51071	2.17727
3879.000	3.33538	2.18957	3.43783	2.14769
3880.000	3.12649	2.04322	3.33933	2.01502
3881.000	2.94511	1.87686	3.15605	1.87054
3882.000	2.80510	1.71630	3.13043	1.71778
3883.000	2.67886	1.64897	3.08312	1.60075
3884.000	2.62560	1.57358	2.94117	1.55331
3885.000	2.56246	1.47635	2.91751	1.47988
3886.000	2.57035	1.43661	2.91751	1.49179
3887.000	2.62954	1.42264	2.96483	1.47982
3888.000	2.70648	1.39277	3.04961	1.48169
3889.000	2.74987	1.42052	3.06932	1.42012
3890.000	2.90962	1.44018	3.18168	1.47952
3891.000	3.01807	1.48570	3.26051	1.43176
3892.000	3.21124	1.52711	3.37873	1.58838
3893.000	3.35509	1.61818	3.51268	1.51870
3894.000	3.46147	1.64578	3.47329	1.64973
3895.000	3.62296	1.80419	3.63084	1.75855
3896.000	3.66628	1.80807	3.62099	1.77642
3897.000	3.77850	1.87526	3.63675	1.79226
3898.000	3.79031	1.89705	3.65841	1.80412
3899.000	3.82967	1.91481	3.71550	1.85556
3900.000	3.84345	1.96038	3.66825	1.91318
3901.000	3.83558	1.97229	3.67022	1.95283
3902.000	3.83164	2.05755	3.62099	1.94501
3903.000	3.79621	2.03384	3.54616	1.89757
3904.000	3.72928	2.03995	3.58752	1.91930
3905.000	3.68597	2.06582	3.54616	1.95310
3906.000	3.61706	2.06400	3.52056	1.95514
3907.000	3.56979	2.02246	3.52056	1.92539
3908.000	3.52056	2.02059	3.48904	1.88380
3909.000	3.43980	2.01283	3.40828	1.84230
3910.000	3.43389	1.99499	3.42207	1.89186
3911.000	3.40828	1.96727	3.39449	1.83637
3912.000	3.38858	1.92962	3.37085	1.77888
3913.000	3.32159	1.90793	3.42404	1.81648
3914.000	3.37085	1.89990	3.37676	1.79276
3915.000	3.32159	1.84444	3.37873	1.77291
3916.000	3.34721	1.83844	3.38464	1.76100
3917.000	3.34130	1.83647	3.37085	1.71936
3918.000	3.30386	1.76114	3.39646	1.71137
3919.000	3.36494	1.76699	3.38464	1.71536
3920.000	3.34721	1.74916	3.35115	1.73130
3921.000	3.32356	1.69959	3.43980	1.70534
3922.000	3.30583	1.69764	3.39252	1.73519
3923.000	3.33341	1.74323	3.42404	1.68553
3924.000	3.35706	1.73922	3.39055	1.63003
3925.000	3.29795	1.70758	3.35115	1.70748
3926.000	3.35706	1.70351	3.30189	1.55278
3927.000	3.33933	1.68568	3.40040	1.64986
3928.000	3.32159	1.64999	3.34721	1.65987
3929.000	3.40434	1.68556	3.44965	1.64183
3930.000	3.34327	1.63209	3.34721	1.69360
3931.000	3.42010	1.73117	3.39843	1.65383
3932.000	3.38464	1.68560	3.37873	1.62806
3933.000	3.39449	1.67169	3.40828	1.59428
3934.000	3.41813	1.71133	3.32750	1.66189
3935.000	3.44374	1.69343	3.41616	1.62403
3936.000	3.42404	1.67363	3.34524	1.55469
3937.000	3.42995	1.67163	3.40040	1.63597
3938.000	3.40631	1.70143	3.37873	1.66775
3939.000	3.45556	1.73706	3.42601	1.64584
3940.000	3.37479	1.67966	3.37085	1.67967
3941.000	3.37479	1.66776	3.38070	1.75307
3942.000	3.42010	1.69347	3.36494	1.73127
3943.000	3.41813	1.70340	3.42798	1.74703
3944.000	3.40434	1.68358	3.41419	1.68753
3945.000	3.43192	1.70536	3.45556	1.75492
3946.000	3.41813	1.71530	3.41222	1.71730
3947.000	3.39843	1.69351	3.42207	1.69347
3948.000	3.47132	1.70330	3.40040	1.77089
3949.000	3.41025	1.70143	3.36494	1.78087
3950.000	3.39843	1.72327	3.36100	1.70945
3951.000	3.39252	1.70543	3.37873	1.74514
3952.000	3.42207	1.73315	3.49101	1.68144
3953.000	3.39843	1.72327	3.41813	1.72721
3954.000	3.39646	1.71534	3.40631	1.79469
3955.000	3.41025	1.72921	3.47723	1.70924
3956.000	3.36494	1.68365	3.34327	1.71345
3957.000	3.40237	1.72525	3.42798	1.73711
3958.000	3.37873	1.69553	3.36100	1.79874
3959.000	3.37479	1.66974	3.44768	1.73112
3960.000	3.35312	1.69359	3.43192	1.82043
3961.000	3.36297	1.69159	3.45359	1.74500
3962.000	3.39449	1.69947	3.36494	1.68762
3963.000	3.38661	1.69750	3.36297	1.69953
3964.000	3.37282	1.68364	3.37282	1.72729
3965.000	3.39843	1.68161	3.42601	1.71926
3966.000	3.35115	1.69756	3.37873	1.77093
3967.000	3.37676	1.67569	3.40434	1.72525
3968.000	3.39252	1.65582	3.48708	1.72113
3969.000	3.36100	1.63603	3.42010	1.70538
3970.000	3.39843	1.63597	3.42404	1.79069
3971.000	3.38267	1.66378	3.41222	1.68158
3972.000	3.42404	1.65378	3.42601	1.73910
3973.000	3.39055	1.61614	3.41222	1.64388
3974.000	3.39843	1.66970	3.47526	1.70131
3975.000	3.39646	1.65581	3.43586	1.72916
3976.000	3.38858	1.63400	3.36888	1.70745
3977.000	3.40434	1.66572	3.41025	1.72325
3978.000	3.44374	1.62994	3.50283	1.70126
3979.000	3.43389	1.67162	3.44177	1.64978
3980.000	3.44177	1.67359	3.47920	1.71718
3981.000	3.43389	1.67956	3.44177	1.69145
3982.000	3.41813	1.65975	3.42798	1.71727
3983.000	3.42207	1.65379	3.41616	1.74507
3984.000	3.42798	1.68354	3.39646	1.74510
3985.000	3.46344	1.65570	3.45359	1.70333
3986.000	3.43586	1.64583	3.47723	1.67552
3987.000	3.41616	1.63792	3.41813	1.74506
3988.000	3.45556	1.68151	3.44374	1.71129
3989.000	3.41025	1.61412	3.43389	1.66766
3990.000	3.42798	1.64584	3.42995	1.75099
3991.000	3.46344	1.64379	3.44571	1.61803
3992.000	3.42207	1.68752	3.38267	1.70346
3993.000	3.41222	1.62007	3.42010	1.65181
3994.000	3.42601	1.65775	3.48117	1.64972
3995.000	3.42798	1.63592	3.48904	1.61796
3996.000	3.39843	1.63398	3.50283	1.62587
3997.000	3.41813	1.66768	3.43980	1.63987
3998.000	3.44965	1.65175	3.54813	1.70515
3999.000	3.42601	1.63592	3.43783	1.65574
4000.000	3.41025	1.63992	3.53238	1.67740
4001.000	3.41616	1.66372	3.52844	1.67741
4002.000	3.39252	1.63003	3.41025	1.62007
4003.000	3.43980	1.64979	3.39843	1.68359
4004.000	3.40828	1.59825	3.44571	1.62597
4005.000	3.44374	1.60414	3.45950	1.61007
4006.000	3.41813	1.66967	3.55207	1.60991
4007.000	3.41419	1.60816	3.50283	1.57626
4008.000	3.44374	1.62399	3.48511	1.70526
4009.000	3.41813	1.62998	3.51268	1.66156
4010.000	3.41025	1.63000	3.43980	1.67558
4011.000	3.40631	1.61016	3.54419	1.60992
4012.000	3.36100	1.59634	3.50283	1.63777
4013.000	3.42601	1.59028	3.51268	1.62387
4014.000	3.43586	1.63789	3.55010	1.65158
4015.000	3.43192	1.60615	3.52450	1.56631
4016.000	3.42207	1.61410	3.48511	1.59812
4017.000	3.41222	1.63198	3.46738	1.60212
4018.000	3.42601	1.62997	3.49889	1.61595
4019.000	3.40631	1.61214	3.51071	1.69133
4020.000	3.43783	1.62400	3.56389	1.58013
4021.000	3.38267	1.59829	3.41222	1.64785
4022.000	3.40237	1.64787	3.48314	1.58225
4023.000	3.41025	1.62801	3.54616	1.55833
4024.000	3.42798	1.62401	3.48314	1.62987
4025.000	3.41813	1.59625	3.49889	1.57825
4026.000	3.36691	1.66777	3.51662	1.62584
4027.000	3.37085	1.56259	3.48314	1.61995
4028.000	3.41025	1.62603	3.45950	1.62396
4029.000	3.41222	1.60618	3.57176	1.66741
4030.000	3.42010	1.60021	3.49298	1.62787
4031.000	3.43586	1.59027	3.57767	1.58606
4032.000	3.38858	1.60820	3.48314	1.66162
4033.000	3.42010	1.60220	3.45950	1.62594
4034.000	3.37085	1.60228	3.49889	1.64373
4035.000	3.42207	1.63394	3.56389	1.66544
4036.000	3.35706	1.54277	3.56979	1.58805
4037.000	3.38858	1.57447	3.49101	1.58224
4038.000	3.36100	1.58047	3.56192	1.55434
4039.000	3.36100	1.62809	3.46541	1.61998
4040.000	3.39843	1.55659	3.43389	1.56646
4041.000	3.39449	1.55461	3.53828	1.60200
4042.000	3.39252	1.59034	3.51465	1.61593
4043.000	3.40828	1.59626	3.51465	1.56037
4044.000	3.38070	1.59631	3.46541	1.64379
4045.000	3.39449	1.58438	3.52056	1.57822
4046.000	3.43389	1.58035	3.43192	1.64782
4047.000	3.41222	1.56252	3.42404	1.58235
4048.000	3.38464	1.61218	3.51662	1.60005
4049.000	3.37873	1.56258	3.47526	1.63981
4050.000	3.40434	1.58833	3.51268	1.62387
4051.000	3.40237	1.57842	3.53435	1.64764
4052.000	3.39843	1.53675	3.53631	1.65359
4053.000	3.46541	1.56442	3.52647	1.61392
4054.000	3.39843	1.54072	3.51071	1.61792
4055.000	3.39449	1.54469	3.57373	1.57218
4056.000	3.43586	1.57042	3.52844	1.62781
4057.000	3.41813	1.54862	3.50677	1.54649
4058.000	3.45556	1.54856	3.48117	1.59614
4059.000	3.39646	1.53675	3.60524	1.54236
4060.000	3.40237	1.49308	3.54813	1.59206
4061.000	3.44177	1.56644	3.44374	1.55255
4062.000	3.42010	1.56648	3.46738	1.60609
4063.000	3.42798	1.58234	3.43389	1.59821
4064.000	3.40631	1.52284	3.51662	1.54449
4065.000	3.43980	1.53867	3.54025	1.57223
4066.000	3.42010	1.54267	3.50874	1.53260
4067.000	3.38464	1.56654	3.52056	1.58219
4068.000	3.42995	1.50296	3.52056	1.58615
4069.000	3.43586	1.53669	3.50086	1.52269
4070.000	3.39252	1.54271	3.46738	1.53862
4071.000	3.43389	1.55852	3.46738	1.61006
4072.000	3.41419	1.55855	3.57767	1.60987
4073.000	3.37282	1.51694	3.49298	1.59215
4074.000	3.40040	1.55064	3.59933	1.55031
4075.000	3.38858	1.53478	3.55601	1.48689
4076.000	3.43389	1.47517	3.50086	1.61794
4077.000	3.40237	1.51293	3.55798	1.55633
4078.000	3.43783	1.53073	3.50086	1.59413
4079.000	3.44177	1.57637	3.54616	1.57024
4080.000	3.39843	1.54072	3.51268	1.57625
4081.000	3.43192	1.51883	3.54616	1.56825
4082.000	3.41025	1.50101	3.54025	1.56231
4083.000	3.39843	1.47523	3.52844	1.50677
4084.000	3.42207	1.46130	3.58949	1.52056
4085.000	3.42207	1.50099	3.54419	1.60000
4086.000	3.45556	1.52673	3.56192	1.49680
4087.000	3.43586	1.54264	3.56389	1.63767
4088.000	3.47329	1.53663	3.52253	1.60996
4089.000	3.47132	1.50686	3.59146	1.52254
4090.000	3.42995	1.55059	3.54222	1.55239
4091.000	3.41419	1.52482	3.53238	1.56034
4092.000	3.44177	1.52080	3.48904	1.59216
4093.000	3.44571	1.51286	3.49101	1.55644
4094.000	3.46541	1.49298	3.58358	1.55033
4095.000	3.44571	1.52477	3.55010	1.56428
4096.000	3.46935	1.55449	3.51662	1.47107
4097.000	3.45753	1.52078	3.52450	1.52464
4098.000	3.45359	1.54063	3.49692	1.53659
4099.000	3.45162	1.54857	3.53238	1.54248
4100.000	3.45162	1.56643	3.55404	1.56626
4101.000	3.44965	1.53071	3.51071	1.55046
4102.000	3.44571	1.51484	3.53041	1.57820
4103.000	3.43980	1.49699	3.49889	1.51674
4104.000	3.47920	1.53662	3.52253	1.61195
4105.000	3.48708	1.52271	3.62099	1.52845
4106.000	3.48511	1.50089	3.53238	1.53455
4107.000	3.45753	1.49300	3.55207	1.58809
4108.000	3.45556	1.54459	3.55995	1.59006
4109.000	3.47132	1.47908	3.55404	1.54642
4110.000	3.46541	1.50092	3.51859	1.52068
4111.000	3.45162	1.47911	3.53238	1.54447
4112.000	3.43586	1.49303	3.55995	1.56228
4113.000	3.47132	1.48305	3.54222	1.52858
4114.000	3.48904	1.47310	3.59146	1.59397
4115.000	3.48904	1.48699	3.55010	1.56031
4116.000	3.49298	1.51477	3.63084	1.56017
4117.000	3.46738	1.45131	3.53631	1.51867
4118.000	3.43192	1.39182	3.59933	1.54039
4119.000	3.49298	1.48500	3.57570	1.55035
4120.000	3.50874	1.50680	3.60918	1.57608
4121.000	3.47132	1.47313	3.55207	1.62777
4122.000	3.47526	1.45328	3.57373	1.46701
4123.000	3.49298	1.48699	3.59343	1.56421
4124.000	3.46738	1.49695	3.55207	1.58015
4125.000	3.47920	1.47312	3.59933	1.50467
4126.000	3.47723	1.46518	3.55404	1.60991
4127.000	3.45950	1.43743	3.62099	1.47289
4128.000	3.47526	1.41359	3.58555	1.54438
4129.000	3.45556	1.43545	3.53041	1.59209
4130.000	3.41616	1.41764	3.55798	1.56823
4131.000	3.48511	1.45326	3.56586	1.51266
4132.000	3.49889	1.51476	3.61509	1.54036
4133.000	3.49495	1.47905	3.54813	1.55238
4134.000	3.43586	1.39380	3.57570	1.60193
4135.000	3.46541	1.48703	3.54813	1.58016
4136.000	3.47920	1.46915	3.59933	1.48682
4137.000	3.48708	1.47509	3.69975	1.60766
4138.000	3.49101	1.47508	3.51859	1.50480
4139.000	3.47526	1.45923	3.60327	1.57609
4140.000	3.48117	1.45327	3.58752	1.62374
4141.000	3.47329	1.51083	3.59343	1.60389
4142.000	3.46738	1.45924	3.58555	1.58406
4143.000	3.45556	1.49101	3.60524	1.53641
4144.000	3.45753	1.44140	3.56389	1.58013
4145.000	3.49692	1.46912	3.56389	1.49084
4146.000	3.43980	1.43547	3.60130	1.51657
4147.000	3.50283	1.45522	3.61312	1.58203
4148.000	3.45753	1.42751	3.59933	1.59197
4149.000	3.49298	1.43936	3.59736	1.57412
4150.000	3.43389	1.43746	3.56389	1.58410
4151.000	3.46935	1.40764	3.55010	1.53452
4152.000	3.43980	1.36005	3.58949	1.52056
4153.000	3.47526	1.36397	3.61903	1.58598
4154.000	3.45753	1.34415	3.62690	1.64945
4155.000	3.47526	1.45526	3.62690	1.57208
4156.000	3.46147	1.38781	3.58752	1.53445
4157.000	3.44374	1.36005	3.60327	1.53443
4158.000	3.46738	1.43543	3.64856	1.50856
4159.000	3.43783	1.40372	3.65053	1.48673
4160.000	3.46344	1.39574	3.61903	1.56218
4161.000	3.44177	1.33623	3.56979	1.47099
4162.000	3.46935	1.44138	3.61312	1.50267
4163.000	3.48904	1.37586	3.60524	1.55625
4164.000	3.48708	1.42746	3.58949	1.53048
4165.000	3.47329	1.37787	3.62690	1.57804
4166.000	3.48117	1.38778	3.57964	1.53050
4167.000	3.48904	1.41555	3.60130	1.58006
4168.000	3.47920	1.40763	3.65447	1.52442
4169.000	3.45950	1.35606	3.60721	1.48879
4170.000	3.44965	1.37790	3.60327	1.50863
4171.000	3.47132	1.34215	3.55798	1.52061
4172.000	3.50480	1.38179	3.51268	1.53656
4173.000	3.47132	1.37985	3.55404	1.47895
4174.000	3.47920	1.38381	3.58358	1.49478
4175.000	3.49101	1.41158	3.56586	1.48290
4176.000	3.49495	1.38180	3.60721	1.49672
4177.000	3.50480	1.40362	3.59146	1.47095
4178.000	3.53631	1.36785	3.51071	1.50879
4179.000	3.50283	1.36989	3.63478	1.54231
4180.000	3.51859	1.44527	3.63281	1.50859
4181.000	3.46344	1.41559	3.63675	1.52643
4182.000	3.52450	1.41947	3.57373	1.53249
4183.000	3.51859	1.39566	3.55207	1.46308
4184.000	3.49889	1.34409	3.61706	1.53639
4185.000	3.53238	1.38373	3.60327	1.49078
4186.000	3.51859	1.41154	3.56586	1.51862
4187.000	3.45950	1.34812	3.50874	1.45323
4188.000	3.49889	1.37585	3.58161	1.51462
4189.000	3.47329	1.34214	3.56389	1.48886
4190.000	3.51268	1.40162	3.56783	1.49480
4191.000	3.53238	1.39763	3.65053	1.54625
4192.000	3.46344	1.35010	3.64462	1.46888
4193.000	3.52056	1.42344	3.61312	1.48481
4194.000	3.50677	1.41156	3.67219	1.46289
4195.000	3.52450	1.41550	3.62493	1.46892
4196.000	3.47723	1.35206	3.51465	1.48695
4197.000	3.54616	1.41943	3.61312	1.50862
4198.000	3.55010	1.41546	3.60918	1.49275
4199.000	3.57373	1.41344	3.66825	1.48869
4200.000	3.55207	1.39561	3.67613	1.50851
4201.000	3.51465	1.38971	3.59736	1.46499
4202.000	3.47132	1.33619	3.59343	1.45508
4203.000	3.47920	1.36397	3.60524	1.50863
4204.000	3.50677	1.37583	3.60918	1.44513
4205.000	3.48511	1.36396	3.59146	1.47889
4206.000	3.56192	1.41941	3.62296	1.49670
4207.000	3.50874	1.35202	3.59933	1.43126
4208.000	3.50086	1.41752	3.61115	1.44910
4209.000	3.51859	1.36589	3.57964	1.46700
4210.000	3.50677	1.37186	3.62887	1.42923
4211.000	3.53828	1.35197	3.72731	1.40724
4212.000	3.53041	1.37977	3.59933	1.46300
4213.000	3.50283	1.39767	3.66038	1.38751
4214.000	3.52844	1.35000	3.67219	1.37558
4215.000	3.51071	1.38972	3.62887	1.49073
4216.000	3.51071	1.34209	3.65841	1.42521
4217.000	3.52056	1.39367	3.63084	1.52049
4218.000	3.54419	1.40356	3.60327	1.44514
4219.000	3.51662	1.37185	3.65250	1.48673
4220.000	3.56586	1.39361	3.67416	1.47082
4221.000	3.51859	1.37780	3.59736	1.42729
4222.000	3.52056	1.40558	3.64462	1.49865
4223.000	3.51268	1.37583	3.64856	1.42126
4224.000	3.51071	1.32423	3.61706	1.45702
4225.000	3.48708	1.36594	3.62099	1.41733
4226.000	3.52056	1.35597	3.60918	1.42529
4227.000	3.56389	1.43131	3.60327	1.43522
4228.000	3.54616	1.37776	3.60130	1.42332
4229.000	3.48511	1.36396	3.63281	1.45105
4230.000	3.55010	1.39363	3.55404	1.40950
4231.000	3.53435	1.35793	3.63478	1.44906
4232.000	3.49495	1.35005	3.62493	1.48280
4233.000	3.50480	1.32821	3.60327	1.38760
4234.000	3.54222	1.33411	3.60524	1.42529
4235.000	3.55601	1.36187	3.59540	1.44317
4236.000	3.51268	1.35598	3.58555	1.42929
4237.000	3.53435	1.34603	3.58949	1.51858
4238.000	3.55010	1.36783	3.59146	1.44714
4239.000	3.52056	1.36788	3.60130	1.46300
4240.000	3.50480	1.33019	3.64856	1.45896
4241.000	3.55404	1.38965	3.57570	1.42931
4242.000	3.59540	1.41340	3.62887	1.41335
4243.000	3.55207	1.34600	3.66038	1.43910
4244.000	3.58555	1.39754	3.68400	1.44303
4245.000	3.51268	1.29644	3.66431	1.41528
4246.000	3.51071	1.31431	3.60327	1.44117
4247.000	3.54222	1.35395	3.62493	1.36970
4248.000	3.55010	1.37577	3.67219	1.45098
4249.000	3.55010	1.35592	3.67022	1.42122
4250.000	3.50480	1.32622	3.64659	1.47483
4251.000	3.54222	1.36387	3.66431	1.38353
4252.000	3.55601	1.32218	3.65250	1.46093
4253.000	3.48117	1.31633	3.57570	1.38367
4254.000	3.56783	1.34598	3.61706	1.45306
4255.000	3.55404	1.33607	3.66825	1.40932
4256.000	3.57176	1.34795	3.69385	1.35373
4257.000	3.53238	1.27458	3.67810	1.41327
4258.000	3.56783	1.32415	3.73322	1.44493
4259.000	3.55010	1.31822	3.60721	1.46299
4260.000	3.53631	1.29045	3.63281	1.48081
4261.000	3.56783	1.31224	3.69975	1.44102
4262.000	3.52450	1.27261	3.63281	1.42525
4263.000	3.55601	1.38767	3.58358	1.44517
4264.000	3.54419	1.26067	3.64659	1.44507
4265.000	3.52450	1.30039	3.63281	1.42327
4266.000	3.57176	1.36383	3.67416	1.45892
4267.000	3.59540	1.31815	3.69975	1.44697
4268.000	3.55601	1.31424	3.62690	1.39947
4269.000	3.58161	1.32611	3.62887	1.40938
4270.000	3.57373	1.31818	3.73322	1.39731
4271.000	3.51465	1.28850	3.67810	1.45296
4272.000	3.51465	1.29247	3.70960	1.40132
4273.000	3.56389	1.29041	3.66628	1.41131
4274.000	3.53631	1.31030	3.57964	1.43922
4275.000	3.51268	1.34209	3.62690	1.45106
4276.000	3.52056	1.30238	3.67022	1.42519
4277.000	3.45162	1.23896	3.62887	1.46891
4278.000	3.36494	1.20136	3.49101	1.47905
4279.000	3.29598	1.24909	3.54222	1.35792
4280.000	3.23095	1.17968	3.48314	1.34610
4281.000	3.12255	1.20165	3.42010	1.31046
4282.000	3.01807	1.14417	3.35115	1.32246
4283.000	2.90568	1.16216	3.19350	1.27900
4284.000	2.79721	1.10467	3.11663	1.24534
4285.000	2.69464	1.13059	3.01609	1.15411
4286.000	2.59008	1.01744	2.96680	1.14423
4287.000	2.51905	0.99763	2.85441	1.19400
4288.000	2.52695	0.99365	2.85835	1.18009
4289.000	2.46775	0.96389	2.89582	1.13437
4290.000	2.50327	0.97380	2.91751	1.11449
4291.000	2.55062	0.99363	2.88004	1.08870
4292.000	2.59600	0.92406	2.96483	1.18395
4293.000	2.65124	0.92998	3.02989	1.15608
4294.000	2.76565	1.01730	3.05749	1.10044
4295.000	2.83271	0.97751	3.18168	1.14003
4296.000	2.91357	1.02313	3.17774	1.14797
4297.000	3.01807	0.98331	3.23095	1.15784
4298.000	3.08706	1.02098	3.29401	1.21931
4299.000	3.11466	1.04081	3.37282	1.23907
4300.000	3.20336	1.09632	3.26642	1.21140
4301.000	3.18168	1.09039	3.31371	1.25105
4302.000	3.18168	1.09237	3.41616	1.19931
4303.000	3.19547	1.08839	3.30583	1.21533
4304.000	3.18562	1.12017	3.40040	1.21719
4305.000	3.16788	1.11026	3.33736	1.20338
4306.000	3.10875	1.12223	3.31765	1.18156
4307.000	3.08706	1.08850	3.30780	1.15180
4308.000	3.09101	1.08651	3.21518	1.25713
4309.000	3.06144	1.07264	3.24671	1.19952
4310.000	3.00624	1.07269	3.28415	1.22727
4311.000	2.98258	1.09655	3.21912	1.19756
4312.000	2.96089	1.00322	3.24277	1.22930
4313.000	2.96878	1.06081	3.23292	1.20946
4314.000	3.00229	1.08263	3.16591	1.19763
4315.000	2.96878	1.05684	3.23292	1.25314
4316.000	2.95892	1.04096	3.22504	1.15785
4317.000	2.97469	1.07471	3.22306	1.19756
4318.000	2.98849	1.08661	3.14817	1.24331
4319.000	2.94314	1.02509	3.18562	1.24327
4320.000	2.91751	0.99730	3.18759	1.20157
4321.000	2.94906	1.01714	3.25065	1.21341
4322.000	2.90962	0.99930	3.16394	1.23932
4323.000	2.97075	1.09060	3.15211	1.24529
4324.000	2.94117	0.98934	3.16788	1.20159
4325.000	2.94117	1.02112	3.17182	1.19166
4326.000	2.95695	1.03302	3.17379	1.18769
4327.000	2.90765	0.99135	3.19547	1.20950
4328.000	2.95103	1.00124	3.19744	1.20950
4329.000	2.92737	0.99332	3.19547	1.24326
4330.000	2.92145	1.01915	3.23883	1.16180
4331.000	2.97666	0.98732	3.16788	1.25719
4332.000	2.94511	0.98536	3.18365	1.14995
4333.000	3.01018	0.99920	3.25854	1.22730
4334.000	2.97863	0.97937	3.19153	1.16384
4335.000	2.98061	0.96944	3.21124	1.16382
4336.000	3.00624	0.99524	3.18562	1.20356
4337.000	2.95695	0.94364	3.17182	1.21350
4338.000	2.95695	0.98535	3.20533	1.26707
4339.000	2.99441	0.96744	3.28612	1.17962
4340.000	2.96089	0.94959	3.19547	1.19759
4341.000	3.00821	0.96346	3.23686	1.16776
4342.000	3.01412	0.96742	3.25854	1.12207
4343.000	3.01018	0.95948	3.20533	1.15588
4344.000	2.99441	0.90190	3.21715	1.14594
4345.000	3.03778	0.94556	3.26051	1.18957
4346.000	3.03975	0.96939	3.22306	1.16381
4347.000	3.03975	0.97137	3.22701	1.16976
4348.000	3.02595	0.94954	3.23489	1.10621
4349.000	3.03975	0.93960	3.20533	1.14794
4350.000	3.01215	0.91976	3.26642	1.10221
4351.000	3.01412	0.92571	3.28612	1.11410
4352.000	3.03975	0.91973	3.27430	1.07242
4353.000	3.04961	0.95150	3.23883	1.11812
4354.000	3.06538	0.92964	3.25854	1.10817
4355.000	3.02989	0.93762	3.27627	1.09823
4356.000	3.04961	0.91973	3.23489	1.12805
4357.000	3.04961	0.90781	3.28021	1.04064
4358.000	3.03581	0.88995	3.23292	1.15188
4359.000	3.03384	0.92768	3.21321	1.17573
4360.000	3.00821	0.88004	3.30977	1.12201
4361.000	3.02004	0.92174	3.27627	1.15779
4362.000	3.00426	0.90983	3.23095	1.14196
4363.000	3.04764	0.94952	3.24080	1.17173
4364.000	2.98455	0.92971	3.23686	1.15585
4365.000	3.00624	0.91182	3.26445	1.12604
4366.000	2.99244	0.87409	3.32159	1.15178
4367.000	2.97666	0.87212	3.25263	1.18958
4368.000	2.99835	0.86415	3.24080	1.11613
4369.000	2.98455	0.89793	3.27233	1.14191
4370.000	3.01609	0.91181	3.26839	1.17765
4371.000	3.04567	0.93165	3.24474	1.14790
4372.000	3.03778	0.92967	3.25460	1.17171
4373.000	3.03778	0.88796	3.29401	1.14586
4374.000	3.06341	0.93759	3.21321	1.20154
4375.000	3.03581	0.96542	3.21912	1.16778
4376.000	3.02004	0.92770	3.26445	1.05654
4377.000	2.94117	0.90393	3.21321	1.09829
4378.000	3.01215	0.93962	3.30583	1.07834
4379.000	3.04172	0.93165	3.21518	1.11219
4380.000	3.00426	0.89196	3.26839	1.12802
4381.000	2.99835	0.91381	3.30780	1.05253
4382.000	3.01609	0.93167	3.25460	1.06052
4383.000	3.02398	0.94954	3.27824	1.08830
4384.000	3.02201	0.92571	3.23292	1.08437
4385.000	3.03778	0.92768	3.28415	0.99696
4386.000	3.05749	0.93759	3.22701	1.13799
4387.000	3.05552	0.93958	3.24671	1.13995
4388.000	3.00426	0.91182	3.24868	1.10024
4389.000	3.05552	0.90780	3.23292	1.08636
4390.000	3.05749	0.93362	3.28218	1.07638
4391.000	3.04961	0.94753	3.27430	1.08433
4392.000	3.06932	0.95149	3.23292	1.13798
4393.000	3.03384	0.93960	3.30189	1.08629
4394.000	3.04961	0.94555	3.28810	1.09623
4395.000	3.03187	0.89988	3.22898	1.13203
4396.000	3.04369	0.93562	3.29598	1.04063
4397.000	3.03187	0.91775	3.32947	1.07831
4398.000	3.03975	0.93364	3.28218	1.10219
4399.000	3.05355	0.91972	3.24868	1.07840
4400.000	3.03778	0.94357	3.28415	1.05851
4401.000	3.04961	0.94157	3.29992	1.09621
4402.000	3.05355	0.94554	3.34130	1.10610
4403.000	3.02792	0.93563	3.28415	1.04262
4404.000	3.07327	0.91971	3.22701	1.04864
4405.000	3.04961	0.92370	3.27430	1.13595
4406.000	3.02201	0.89790	3.20336	1.05859
4407.000	3.04567	0.90185	3.26051	1.11214
4408.000	3.08115	0.97332	3.30780	1.07437
4409.000	3.07327	0.89389	3.33538	1.09022
4410.000	3.10086	0.92564	3.30780	1.12599
4411.000	3.03384	0.94754	3.18956	1.09832
4412.000	3.02398	0.92173	3.28612	1.07439
4413.000	3.04369	0.88597	3.30583	1.13989
4414.000	3.05552	0.94554	3.27036	1.13198
4415.000	3.00624	0.90983	3.27430	1.05653
4416.000	3.00229	0.87806	3.29598	1.06445
4417.000	3.02398	0.88996	3.27036	1.14985
4418.000	3.03778	0.91179	3.21321	1.07050
4419.000	3.04961	0.90384	3.28810	1.08630
4420.000	3.05552	0.89986	3.33933	1.08227
4421.000	3.00821	0.87606	3.31568	1.08230
4422.000	3.02595	0.88002	3.23686	1.11415
4423.000	3.04567	0.90781	3.29992	1.04261
4424.000	3.04961	0.83233	3.24474	1.10422
4425.000	3.04369	0.88597	3.30977	1.09223
4426.000	3.04172	0.90583	3.29992	1.07040
4427.000	3.01215	0.86216	3.31962	1.10215
4428.000	3.01215	0.88003	3.34327	1.02469
4429.000	3.07327	0.90183	3.26642	1.16376
4430.000	3.03384	0.87406	3.34327	1.10609
4431.000	3.05355	0.86411	3.28218	1.05652
4432.000	3.09889	0.90975	3.31371	1.07833
4433.000	3.04764	0.86809	3.36100	1.06041
4434.000	3.04172	0.86611	3.27036	1.11213
4435.000	3.02004	0.89989	3.32159	1.14384
4436.000	3.01609	0.86613	3.29795	1.07438
4437.000	3.03581	0.88597	3.42010	1.14174
4438.000	3.05749	0.87801	3.25263	1.11811
4439.000	3.01215	0.87407	3.28810	1.04063
4440.000	3.06144	0.88595	3.25460	1.11016
4441.000	3.04961	0.92171	3.31962	1.07435
4442.000	3.06144	0.87006	3.31371	1.13194
4443.000	3.05158	0.90384	3.33933	1.09617
4444.000	3.04764	0.89192	3.27233	1.08036
4445.000	3.05158	0.83829	3.28218	1.08631
4446.000	3.04764	0.88000	3.32750	1.14979
4447.000	3.05749	0.87801	3.33736	1.13191
4448.000	3.03778	0.87207	3.30583	1.10812
4449.000	3.07129	0.87800	3.29007	1.06843
4450.000	3.06341	0.85020	3.26445	1.11214
4451.000	3.04369	0.86809	3.31962	1.16171
4452.000	3.06144	0.86808	3.30386	1.18555
4453.000	3.05749	0.82836	3.35903	1.10409
4454.000	3.06538	0.87205	3.33538	1.11801
4455.000	3.02595	0.82639	3.25460	1.12208
4456.000	3.00426	0.88401	3.32356	1.09023
4457.000	3.05552	0.87205	3.30583	1.13790
4458.000	3.05158	0.82637	3.26051	1.04662
4459.000	3.03187	0.85420	3.29204	1.10814
4460.000	3.06144	0.86609	3.30977	1.14782
4461.000	3.05947	0.89191	3.28218	1.07241
4462.000	3.01609	0.84031	3.29598	1.02871
4463.000	3.05355	0.88000	3.33933	1.02073
4464.000	3.03384	0.87009	3.28021	1.06844
4465.000	3.07721	0.85615	3.22504	1.12211
4466.000	3.04172	0.86611	3.28415	1.09226
4467.000	3.05749	0.91376	3.31174	1.10811
4468.000	3.05947	0.88595	3.30780	1.10216
4469.000	3.02004	0.83832	3.29795	1.10217
4470.000	3.02989	0.89988	3.32159	1.06442
4471.000	3.07524	0.85813	3.34130	1.14382
4472.000	3.04961	0.89589	3.29204	1.10416
4473.000	3.06144	0.84424	3.36100	1.13585
4474.000	3.05947	0.82637	3.23686	1.06849
4475.000	3.03975	0.84029	3.29204	1.09225
4476.000	3.07129	0.82437	3.29204	1.08630
4477.000	3.06538	0.85218	3.27627	1.12602
4478.000	3.04961	0.83233	3.27824	1.07241
4479.000	3.07721	0.85019	3.32750	1.10611
4480.000	3.05552	0.80850	3.30583	1.10812
4481.000	3.02595	0.80256	3.36888	1.08026
4482.000	3.08706	0.83032	3.30583	1.07040
4483.000	3.08904	0.83429	3.32159	1.08229
4484.000	3.04567	0.83631	3.35312	1.10013
4485.000	3.05947	0.83829	3.26445	1.09625
4486.000	3.03581	0.81844	3.29007	1.07439
4487.000	3.07721	0.86806	3.27824	1.10617
4488.000	3.05355	0.84822	3.31174	1.07436
4489.000	3.07129	0.84026	3.29598	1.06048
4490.000	3.05158	0.84425	3.22504	1.09034
4491.000	3.02398	0.85222	3.25263	1.02677
4492.000	3.07327	0.83232	3.27824	1.04064
4493.000	3.04567	0.80254	3.31765	1.09421
4494.000	3.05749	0.88198	3.29992	1.12401
4495.000	3.02989	0.79660	3.25657	1.10619
4496.000	3.06341	0.78664	3.36691	1.11202
4497.000	3.03778	0.83632	3.31765	1.04060
4498.000	3.04567	0.78665	3.33341	1.12993
4499.000	3.02201	0.82441	3.33538	1.07037
4500.000	3.01018	0.81648	3.25657	1.17369
4501.000	3.09101	0.80251	3.33538	1.10610
4502.000	3.04764	0.81446	3.28810	1.08233
4503.000	3.05749	0.80055	3.31371	1.09223
4504.000	3.09692	0.81641	3.37479	1.05047
4505.000	3.03187	0.82838	3.30386	1.09422
4506.000	3.05749	0.78069	3.31174	1.11804
4507.000	3.03778	0.82639	3.37085	1.07827
4508.000	3.07327	0.83033	3.37676	1.11400
4509.000	3.05158	0.75686	3.35509	1.06042
4510.000	3.02792	0.80653	3.36691	1.03460
4511.000	3.07721	0.86012	3.28021	1.11013
4512.000	3.06144	0.83034	3.26051	1.06648
4513.000	3.05552	0.83630	3.33144	1.08030
4514.000	3.04369	0.80056	3.37085	1.07827
4515.000	3.06932	0.82040	3.31765	1.07634
4516.000	3.02792	0.82043	3.27824	1.06050
4517.000	3.09101	0.82039	3.33736	1.13191
4518.000	3.08115	0.77273	3.31371	1.10414
4519.000	3.10678	0.82236	3.38464	1.09413
4520.000	3.06735	0.81047	3.36888	1.11202
4521.000	3.06341	0.83431	3.30977	1.12003
4522.000	3.06932	0.79657	3.33736	1.09617
4523.000	3.05355	0.82041	3.41222	1.07227
4524.000	3.06932	0.80849	3.34327	1.11999
4525.000	3.06341	0.80055	3.32159	1.14979
4526.000	3.06341	0.79459	3.34327	1.13587
4527.000	3.05355	0.78864	3.33341	1.09221
4528.000	3.07918	0.81642	3.33538	1.06441
4529.000	3.08904	0.86011	3.35706	1.07828
4530.000	3.11072	0.82633	3.25854	1.10619
4531.000	3.09495	0.84223	3.36691	1.03658
4532.000	3.08904	0.82436	3.38267	1.07825
4533.000	3.08706	0.78067	3.37282	1.03657
4534.000	3.07524	0.78266	3.28415	1.13793
4535.000	3.06932	0.85814	3.28810	1.11608
4536.000	3.08312	0.78067	3.42995	1.03254
4537.000	3.09298	0.77669	3.30189	1.04459
4538.000	3.08509	0.84422	3.36888	1.07231
4539.000	3.05552	0.84425	3.36888	1.11599
4540.000	3.06144	0.80452	3.26248	1.05655
4541.000	3.11269	0.83626	3.34918	1.10410
4542.000	3.07129	0.82239	3.37085	1.06239
4543.000	3.10086	0.85216	3.32553	1.09222
4544.000	3.05355	0.82439	3.28810	1.14189
4545.000	3.12058	0.83625	3.36494	1.01474
4546.000	3.09495	0.81840	3.39252	1.09214
4547.000	3.09495	0.87798	3.29007	1.08431
4548.000	3.02792	0.77276	3.37479	1.08422
4549.000	3.09101	0.79655	3.39646	1.05045
4550.000	3.05947	0.78069	3.35509	1.14578
4551.000	3.06932	0.80253	3.30583	1.08628
4552.000	3.08115	0.78266	3.31962	1.04854
4553.000	3.05158	0.75090	3.28218	1.05057
4554.000	3.06735	0.81643	3.31371	1.04061
4555.000	3.06341	0.80253	3.38070	1.02862
4556.000	3.10678	0.77469	3.32750	1.00684
4557.000	3.10481	0.79654	3.30583	1.06643
4558.000	3.11072	0.80647	3.32159	0.96714
4559.000	3.11269	0.81640	3.29795	1.11011
4560.000	3.07721	0.81245	3.34918	1.06439
4561.000	3.09298	0.84223	3.38464	1.03259
4562.000	3.06144	0.83630	3.33933	1.11602
4563.000	3.07129	0.76677	3.37085	1.09812
4564.000	3.05355	0.75090	3.29204	1.00886
4565.000	3.05355	0.82041	3.34327	1.06639
4566.000	3.06932	0.77472	3.37282	1.07032
4567.000	3.05749	0.81644	3.37085	1.05444
4568.000	3.06735	0.79657	3.30189	1.07040
4569.000	3.06341	0.84027	3.29204	1.04857
4570.000	3.08509	0.79656	3.36494	1.03857
4571.000	3.07918	0.80848	3.31371	1.09818
4572.000	3.08115	0.83032	3.30189	1.08033
4573.000	3.10481	0.83428	3.42207	1.07424
4574.000	3.07721	0.79458	3.40631	1.04249
4575.000	3.07129	0.79657	3.33144	1.15574
4576.000	3.09298	0.83627	3.31962	1.08627
4577.000	3.09298	0.80847	3.30189	1.10217
4578.000	3.05749	0.79062	3.32356	1.06839
4579.000	3.08706	0.85415	3.26051	1.07442
4580.000	3.08706	0.81443	3.37479	1.08422
4581.000	3.11269	0.82633	3.31568	1.07833
4582.000	3.08706	0.82039	3.36297	1.10409
4583.000	3.04764	0.84425	3.31765	1.06443
4584.000	3.09692	0.82038	3.29401	1.05056
4585.000	3.09101	0.84819	3.29795	1.07636
4586.000	3.11269	0.83626	3.35706	1.10211
4587.000	3.07524	0.82437	3.33933	1.11801
4588.000	3.07524	0.81841	3.30189	1.02474
4589.000	3.10678	0.80846	3.29598	1.04460
4590.000	3.07327	0.83033	3.26642	1.09625
4591.000	3.12058	0.84022	3.29598	1.12799
4592.000	3.12846	0.84816	3.29598	1.13394
4593.000	3.08115	0.83032	3.34721	1.11204
4594.000	3.06735	0.82239	3.24868	1.09230
4595.000	3.10086	0.84421	3.27233	1.07838
4596.000	3.07524	0.85615	3.29992	1.08629
4597.000	3.04961	0.84425	3.34327	1.10212
4598.000	3.07918	0.89388	3.35903	1.16166
4599.000	3.10086	0.85017	3.28810	1.14189
4600.000	3.07524	0.85813	3.30189	1.10614
4601.000	3.10481	0.86804	3.37282	1.01474
4602.000	3.08509	0.85614	3.40237	1.08419
4603.000	3.08312	0.85416	3.27036	1.03867
4604.000	3.05355	0.78069	3.32553	1.05846
4605.000	3.04172	0.84624	3.27824	1.12006
4606.000	3.12846	0.85015	3.39449	1.05243
4607.000	3.10875	0.81243	3.34918	1.07829
4608.000	3.09101	0.82039	3.32750	1.09221
4609.000	3.10481	0.83626	3.32750	1.10810
4610.000	3.09889	0.84024	3.29007	1.11608
4611.000	3.12255	0.82433	3.23095	1.12806
4612.000	3.05552	0.77672	3.33538	1.06639
4613.000	3.03581	0.81248	3.35312	1.01873
4614.000	3.09495	0.83031	3.40237	1.12389
4615.000	3.08509	0.83827	3.39449	1.11398
4616.000	3.07327	0.83629	3.27824	1.03270
4617.000	3.07327	0.86012	3.32750	1.12199
4618.000	3.06735	0.82239	3.32750	1.14979
4619.000	3.07918	0.81444	3.32159	1.12994
4620.000	3.06932	0.84424	3.31174	1.21135
4621.000	3.02989	0.83434	3.27824	1.19352
4622.000	3.05749	0.83233	3.36494	1.14180
4623.000	3.04961	0.78467	3.25263	1.06450
4624.000	3.03384	0.80653	3.31765	1.03266
4625.000	3.07129	0.78664	3.33144	1.13986
4626.000	3.06341	0.82438	3.28612	1.08829
4627.000	3.04369	0.79857	3.36691	1.11798
4628.000	3.05749	0.79260	3.29795	1.09423
4629.000	3.11663	0.82632	3.26445	1.14787
4630.000	3.07524	0.78465	3.29007	1.13792
4631.000	3.08904	0.84422	3.39252	1.06832
4632.000	3.05355	0.75686	3.28218	1.09623
4633.000	3.04567	0.81843	3.33736	1.14183
4634.000	3.05355	0.76480	3.36100	1.07034
4635.000	3.03187	0.74495	3.30977	1.10017
