time (ms)	lx (deg)	ly (deg)	rx (deg)	ry (deg)
0.000	1.76491	1.39763	-0.36969	0.59879
1.000	1.80046	1.38370	-0.34399	0.59879
2.000	1.81033	1.41747	-0.35783	0.59879
3.000	1.85181	1.43334	-0.33806	0.64056
4.000	1.75700	1.39963	-0.35190	0.59680
5.000	1.79256	1.38569	-0.35981	0.60674
6.000	1.80836	1.39959	-0.38353	0.59680
7.000	1.80441	1.43934	-0.37167	0.59481
8.000	1.81823	1.42343	-0.37167	0.58088
9.000	1.82218	1.41349	-0.33806	0.59282
10.000	1.81231	1.42144	-0.35981	0.58088
11.000	1.84983	1.41744	-0.35981	0.61669
12.000	1.82811	1.41944	-0.34795	0.58685
13.000	1.79453	1.45921	-0.38749	0.61271
14.000	1.83206	1.41149	-0.38353	0.58287
15.000	1.82613	1.45522	-0.38551	0.60674
16.000	1.83206	1.40354	-0.36772	0.60276
17.000	1.83601	1.42341	-0.38749	0.59083
18.000	1.81823	1.46317	-0.38156	0.58685
19.000	1.81231	1.42542	-0.37563	0.63658
20.000	1.84391	1.42738	-0.33213	0.60277
21.000	1.83798	1.43732	-0.36574	0.61470
22.000	1.82613	1.39759	-0.36574	0.60475
23.000	1.85576	1.43929	-0.35783	0.56298
24.000	1.84588	1.45122	-0.37167	0.56298
25.000	1.84391	1.44924	-0.36179	0.55502
26.000	1.85181	1.43334	-0.35190	0.58685
27.000	1.83798	1.48303	-0.37563	0.55502
28.000	1.82811	1.42938	-0.41319	0.54309
29.000	1.84391	1.45321	-0.39144	0.54110
30.000	1.88538	1.46510	-0.34004	0.58685
31.000	1.86761	1.41146	-0.40726	0.54508
32.000	1.84588	1.47706	-0.39935	0.53911
33.000	1.83996	1.44328	-0.37563	0.59282
34.000	1.83798	1.42540	-0.36969	0.54309
35.000	1.86563	1.45717	-0.40528	0.53115
36.000	1.80441	1.41748	-0.36969	0.56099
37.000	1.84983	1.38564	-0.40133	0.52319
38.000	1.80836	1.41151	-0.43098	0.51126
39.000	1.83996	1.44726	-0.42307	0.55502
40.000	1.86563	1.44723	-0.38749	0.56497
41.000	1.87156	1.44922	-0.42307	0.55104
42.000	1.84786	1.44129	-0.39342	0.55900
43.000	1.85181	1.42936	-0.39144	0.53911
44.000	1.87946	1.41543	-0.38946	0.58287
45.000	1.84588	1.44129	-0.36179	0.56099
46.000	1.85378	1.44526	-0.38353	0.62067
47.000	1.80441	1.40357	-0.38946	0.63459
48.000	1.78663	1.38967	-0.39737	0.54110
49.000	1.78663	1.37774	-0.38156	0.58884
50.000	1.80836	1.37574	-0.38551	0.54110
51.000	1.73528	1.33207	-0.43493	0.56497
52.000	1.78071	1.36582	-0.41912	0.55502
53.000	1.78071	1.33005	-0.44284	0.52518
54.000	1.80243	1.37972	-0.43098	0.48142
55.000	1.78268	1.40756	-0.43691	0.50330
56.000	1.79453	1.40953	-0.43098	0.51921
57.000	1.80638	1.35388	-0.43098	0.50131
58.000	1.87748	1.41146	-0.41121	0.53115
59.000	1.80046	1.40953	-0.47052	0.45357
60.000	1.86366	1.38166	-0.47052	0.49335
61.000	1.86958	1.41345	-0.43889	0.50927
62.000	1.80638	1.34196	-0.45272	0.50529
63.000	1.84786	1.38763	-0.46261	0.47545
64.000	1.83206	1.37970	-0.43098	0.46352
65.000	1.86958	1.34390	-0.45075	0.52717
66.000	1.86366	1.40948	-0.46063	0.43566
67.000	1.82416	1.33598	-0.45668	0.45954
68.000	1.83403	1.38168	-0.46656	0.49534
69.000	1.83601	1.34194	-0.43691	0.42970
70.000	1.84588	1.35584	-0.44284	0.47744
71.000	1.84391	1.37174	-0.42307	0.46352
72.000	1.88735	1.31010	-0.44086	0.50131
73.000	1.81231	1.33798	-0.40923	0.46551
74.000	1.81231	1.34195	-0.42109	0.55104
75.000	1.82613	1.35387	-0.45865	0.45954
76.000	1.87353	1.39357	-0.44284	0.47545
77.000	1.84588	1.36379	-0.46261	0.50927
78.000	1.82218	1.32605	-0.41516	0.46153
79.000	1.83403	1.34591	-0.46261	0.49932
80.000	1.83206	1.34989	-0.45470	0.48341
81.000	1.83008	1.33995	-0.41121	0.49336
82.000	1.82218	1.35983	-0.44086	0.48540
83.000	1.81231	1.33599	-0.46063	0.50330
84.000	1.79256	1.34793	-0.44284	0.50927
85.000	1.79058	1.35588	-0.39144	0.50330
86.000	1.77281	1.33999	-0.43691	0.49335
87.000	1.82811	1.33995	-0.42505	0.47147
88.000	1.80441	1.33202	-0.41121	0.46551
89.000	1.79848	1.38171	-0.45075	0.48142
90.000	1.81428	1.33003	-0.46854	0.50131
91.000	1.80243	1.34792	-0.45470	0.48738
92.000	1.79848	1.35587	-0.43691	0.51921
93.000	1.80441	1.29824	-0.41912	0.52916
94.000	1.82811	1.32604	-0.41912	0.54905
95.000	1.81626	1.31214	-0.43493	0.50728
96.000	1.86563	1.31806	-0.47842	0.54109
97.000	1.85773	1.35186	-0.41516	0.56895
98.000	1.84193	1.29026	-0.47249	0.51921
99.000	1.86366	1.33595	-0.47842	0.54706
100.000	1.84786	1.29622	-0.47842	0.50926
101.000	1.82613	1.28630	-0.45668	0.54109
102.000	1.89328	1.27035	-0.48238	0.52120
103.000	1.83798	1.28827	-0.47249	0.54706
104.000	1.84391	1.25448	-0.47447	0.53910
105.000	1.86761	1.27235	-0.44877	0.55701
106.000	1.86168	1.26838	-0.46656	0.54308
107.000	1.82811	1.27238	-0.47842	0.55899
108.000	1.84786	1.25846	-0.47052	0.57889
109.000	1.83206	1.25847	-0.46656	0.54308
110.000	1.82811	1.20282	-0.43889	0.57690
111.000	1.86366	1.25447	-0.45668	0.53115
112.000	1.82218	1.23661	-0.45668	0.54507
113.000	1.82218	1.30220	-0.45470	0.50330
114.000	1.80243	1.22271	-0.47052	0.54308
115.000	1.77676	1.23068	-0.49424	0.49932
116.000	1.83403	1.21872	-0.51005	0.50528
117.000	1.81231	1.21674	-0.47249	0.47744
118.000	1.76886	1.22472	-0.53575	0.48937
119.000	1.77281	1.20882	-0.49226	0.48937
120.000	1.80441	1.21476	-0.52191	0.48937
121.000	1.77478	1.23466	-0.46656	0.50330
122.000	1.77676	1.25254	-0.51401	0.49733
123.000	1.79453	1.18893	-0.46854	0.51125
124.000	1.81626	1.21873	-0.49226	0.48937
125.000	1.74910	1.18498	-0.48435	0.50330
126.000	1.79058	1.22073	-0.48040	0.47744
127.000	1.84391	1.24256	-0.44877	0.45954
128.000	1.86168	1.22466	-0.52982	0.48340
129.000	1.78861	1.23465	-0.48435	0.47744
130.000	1.79651	1.24657	-0.49424	0.46749
131.000	1.83798	1.20878	-0.51994	0.41577
132.000	1.84786	1.21274	-0.50808	0.42373
133.000	1.84786	1.23461	-0.49622	0.35609
134.000	1.85181	1.22467	-0.52587	0.39587
135.000	1.86761	1.24850	-0.51598	0.38991
136.000	1.89920	1.24053	-0.58320	0.36404
137.000	1.85971	1.23659	-0.55354	0.35211
138.000	1.87353	1.18490	-0.56738	0.35609
139.000	1.84588	1.24653	-0.53180	0.40980
140.000	1.86958	1.22664	-0.55552	0.38394
141.000	1.84391	1.19287	-0.49819	0.35012
142.000	1.84193	1.17300	-0.50215	0.35211
143.000	1.88933	1.21868	-0.52784	0.34813
144.000	1.86563	1.17696	-0.53180	0.37001
145.000	1.88538	1.20676	-0.45865	0.34814
146.000	1.86168	1.19485	-0.51005	0.43367
147.000	1.92685	1.22660	-0.52982	0.41975
148.000	1.86563	1.13919	-0.51401	0.41975
149.000	1.88143	1.17098	-0.54761	0.42173
150.000	1.84193	1.17101	-0.51005	0.41179
151.000	1.91895	1.17295	-0.49622	0.41378
152.000	1.84983	1.17498	-0.52389	0.46550
153.000	1.85971	1.18491	-0.49226	0.42771
154.000	1.89525	1.23457	-0.54168	0.41577
155.000	1.86168	1.22068	-0.50215	0.48141
156.000	1.89920	1.19681	-0.49819	0.47545
157.000	1.87353	1.17099	-0.52784	0.48340
158.000	1.89525	1.22464	-0.50215	0.45953
159.000	1.93672	1.22262	-0.48040	0.47545
160.000	1.89130	1.19284	-0.48238	0.45158
161.000	1.89328	1.19880	-0.51005	0.46152
162.000	1.87946	1.21073	-0.50412	0.47346
163.000	1.89328	1.19681	-0.51005	0.47147
164.000	1.85576	1.18690	-0.46854	0.45755
165.000	1.82613	1.20481	-0.48238	0.46550
166.000	1.86761	1.18888	-0.49424	0.47943
167.000	1.86761	1.21671	-0.49226	0.47943
168.000	1.90315	1.21072	-0.48831	0.50727
169.000	1.85378	1.19883	-0.49622	0.47943
170.000	1.87156	1.20279	-0.49819	0.47744
171.000	1.90513	1.20078	-0.49424	0.49136
172.000	1.85181	1.17697	-0.49028	0.43964
173.000	1.84786	1.23063	-0.50215	0.46948
174.000	1.89920	1.19681	-0.49819	0.44760
175.000	1.85181	1.17498	-0.51203	0.46550
176.000	1.84786	1.18492	-0.48435	0.43765
177.000	1.84786	1.15908	-0.53180	0.44759
178.000	1.88143	1.15707	-0.51598	0.38394
179.000	1.84588	1.17498	-0.52191	0.39985
180.000	1.81626	1.16705	-0.52784	0.37001
181.000	1.83206	1.13126	-0.52982	0.37399
182.000	1.82416	1.10940	-0.52982	0.36604
183.000	1.86366	1.15708	-0.52191	0.39389
184.000	1.86168	1.21671	-0.53180	0.40781
185.000	1.84786	1.14119	-0.54959	0.35211
186.000	1.87551	1.14714	-0.55750	0.33620
187.000	1.82811	1.18096	-0.54959	0.31431
188.000	1.82811	1.16903	-0.53180	0.33421
189.000	1.85181	1.17498	-0.57331	0.30437
190.000	1.81033	1.17103	-0.53378	0.33421
191.000	1.83008	1.18294	-0.54761	0.35012
192.000	1.80441	1.12134	-0.51598	0.35808
193.000	1.87353	1.15906	-0.51203	0.35410
194.000	1.79848	1.10743	-0.50610	0.35808
195.000	1.82021	1.13723	-0.51598	0.33620
196.000	1.83008	1.14120	-0.50808	0.36206
197.000	1.86168	1.14913	-0.52191	0.37200
198.000	1.85378	1.12727	-0.53378	0.36802
199.000	1.81231	1.13923	-0.54564	0.34614
200.000	1.84391	1.12331	-0.53378	0.34216
201.000	1.82021	1.07562	-0.55552	0.29641
202.000	1.81428	1.13128	-0.52982	0.34018
203.000	1.80046	1.12731	-0.52587	0.34614
204.000	1.84391	1.12529	-0.52587	0.34614
205.000	1.83601	1.08554	-0.53773	0.35012
206.000	1.86168	1.14715	-0.55157	0.32028
207.000	1.87748	1.13720	-0.53378	0.30437
208.000	1.87551	1.10142	-0.51994	0.34216
209.000	1.80243	1.08755	-0.53575	0.29641
210.000	1.86958	1.10938	-0.53971	0.28050
211.000	1.85576	1.09945	-0.50610	0.29044
212.000	1.80638	1.12532	-0.50808	0.33222
213.000	1.85181	1.10939	-0.51796	0.29641
214.000	1.82613	1.11338	-0.53378	0.31034
215.000	1.84786	1.08951	-0.55354	0.34813
216.000	1.80441	1.09749	-0.54959	0.30039
217.000	1.82218	1.10344	-0.54761	0.28646
218.000	1.87946	1.10142	-0.53180	0.28447
219.000	1.80836	1.08357	-0.54168	0.29442
220.000	1.87946	1.10937	-0.52587	0.28448
221.000	1.84193	1.14915	-0.56343	0.31431
222.000	1.85378	1.10740	-0.54564	0.25662
223.000	1.83206	1.09549	-0.52191	0.28050
224.000	1.85576	1.05373	-0.52784	0.24668
225.000	1.85773	1.10541	-0.54761	0.24469
226.000	1.90710	1.09941	-0.52784	0.30437
227.000	1.85378	1.07957	-0.55947	0.25463
228.000	1.91500	1.11928	-0.51994	0.27652
229.000	1.84983	1.12926	-0.50017	0.27851
230.000	1.84983	1.08355	-0.50215	0.25862
231.000	1.91105	1.10935	-0.54168	0.31034
232.000	1.85378	1.13324	-0.48435	0.25265
233.000	1.90710	1.09743	-0.52587	0.24867
234.000	1.91105	1.08749	-0.50610	0.26060
235.000	1.86366	1.08354	-0.53180	0.27453
236.000	1.85576	1.08553	-0.49424	0.22878
237.000	1.83601	1.08554	-0.50610	0.24469
238.000	1.89920	1.09544	-0.50215	0.26657
239.000	1.83996	1.09946	-0.52587	0.23076
240.000	1.88341	1.08949	-0.48633	0.21883
241.000	1.81626	1.11935	-0.50017	0.23275
242.000	1.83008	1.09747	-0.47842	0.21485
243.000	1.84391	1.06368	-0.51598	0.26060
244.000	1.82613	1.09151	-0.50017	0.21883
245.000	1.86366	1.07360	-0.52389	0.28249
246.000	1.85181	1.10144	-0.46261	0.28448
247.000	1.83996	1.05970	-0.50215	0.25663
248.000	1.83798	1.07759	-0.50610	0.21883
249.000	1.84588	1.04777	-0.48633	0.22878
250.000	1.87946	1.05372	-0.43889	0.21485
251.000	1.89130	1.08949	-0.48831	0.24668
252.000	1.87156	1.06763	-0.49622	0.21883
253.000	1.95252	1.09143	-0.45075	0.18700
254.000	1.86761	1.06565	-0.51598	0.23076
255.000	1.90710	1.02786	-0.52587	0.22082
256.000	1.91895	1.06959	-0.54168	0.19694
257.000	1.88538	1.07558	-0.50017	0.21883
258.000	1.87156	1.04179	-0.55552	0.20490
259.000	1.94462	1.08150	-0.50808	0.21684
260.000	1.94265	1.06361	-0.51598	0.16909
261.000	1.91895	1.06363	-0.51005	0.19893
262.000	1.88735	1.02390	-0.48238	0.18700
263.000	1.88341	1.03185	-0.51598	0.18700
264.000	1.88735	1.05967	-0.53575	0.23275
265.000	1.93672	1.01989	-0.47447	0.18700
266.000	1.87551	1.03782	-0.50412	0.22878
267.000	1.89130	1.04178	-0.53773	0.21286
268.000	1.94265	1.02585	-0.51401	0.14920
269.000	1.92290	1.04971	-0.45668	0.19695
270.000	1.95647	1.02783	-0.51598	0.20092
271.000	1.89130	1.01197	-0.50017	0.23673
272.000	1.92685	1.03580	-0.52389	0.16909
273.000	1.95647	1.02187	-0.54564	0.18501
274.000	1.93080	1.01393	-0.52982	0.16909
275.000	1.93870	1.02585	-0.51598	0.22877
276.000	1.95647	1.03975	-0.53378	0.20092
277.000	1.93475	1.01393	-0.53575	0.17506
278.000	1.97227	1.04571	-0.54761	0.20888
279.000	1.93278	1.00002	-0.51598	0.15915
280.000	1.94462	1.03380	-0.52191	0.19098
281.000	1.96832	1.02981	-0.54168	0.16909
282.000	1.97424	0.98608	-0.54366	0.19694
283.000	1.96635	0.98807	-0.53378	0.14522
284.000	2.03151	1.02579	-0.52389	0.18899
285.000	1.99202	1.00594	-0.54959	0.15318
286.000	1.99202	1.01389	-0.54959	0.14721
287.000	1.96437	1.04373	-0.54366	0.15119
288.000	1.93475	0.99008	-0.52784	0.18302
289.000	1.97029	0.99801	-0.57727	0.17307
290.000	1.96240	1.01192	-0.54366	0.19694
291.000	1.98214	1.01788	-0.50412	0.20689
292.000	1.99794	0.99600	-0.55157	0.13329
293.000	2.02361	1.01785	-0.54168	0.15119
294.000	1.99004	0.98806	-0.53180	0.13925
295.000	2.00584	0.97413	-0.55157	0.10544
296.000	1.93672	1.01790	-0.54959	0.12732
297.000	1.99399	0.97016	-0.56738	0.12732
298.000	1.95252	0.94832	-0.53971	0.17904
299.000	1.96240	0.93043	-0.58122	0.12732
300.000	1.97819	0.96620	-0.55947	0.13726
301.000	1.91698	0.93840	-0.57133	0.13925
302.000	1.94067	0.91056	-0.53378	0.12334
303.000	1.93870	0.98014	-0.57529	0.18302
304.000	1.93870	0.98014	-0.54564	0.14522
305.000	1.97622	1.00397	-0.55750	0.13726
306.000	1.98017	0.98806	-0.54761	0.14920
307.000	1.97029	0.94831	-0.55354	0.12334
308.000	1.95450	0.96820	-0.55354	0.13329
309.000	1.95845	0.96422	-0.55157	0.16313
310.000	1.97227	1.00397	-0.57529	0.13726
311.000	1.94857	1.00001	-0.56343	0.15119
312.000	1.98017	0.99005	-0.54564	0.15318
313.000	2.00386	0.99202	-0.57727	0.16511
314.000	1.95450	1.01193	-0.53773	0.11140
315.000	1.99399	0.98209	-0.56540	0.13925
316.000	1.98412	0.99005	-0.56738	0.10345
317.000	1.95845	0.97416	-0.54168	0.09549
318.000	1.95055	1.01591	-0.53575	0.10742
319.000	1.98807	0.96222	-0.57924	0.12931
320.000	1.97029	0.99204	-0.55157	0.09748
321.000	1.98807	0.98408	-0.54959	0.11936
322.000	1.96635	0.97416	-0.52191	0.08554
323.000	1.95845	0.98410	-0.51994	0.10146
324.000	1.97622	0.99005	-0.52191	0.10146
325.000	1.95450	0.99603	-0.56343	0.11140
326.000	1.93672	0.94237	-0.55750	0.09549
327.000	1.93672	1.00001	-0.54366	0.11339
328.000	1.97424	0.98608	-0.53180	0.11140
329.000	1.97622	0.99800	-0.55354	0.16114
330.000	1.97819	0.98806	-0.54761	0.10345
331.000	1.95647	0.97615	-0.53378	0.11538
332.000	1.97622	1.00397	-0.52587	0.11936
333.000	1.93475	0.92448	-0.54366	0.13329
334.000	1.93672	0.94436	-0.53378	0.08952
335.000	1.97622	0.96819	-0.52389	0.13727
336.000	2.00386	0.95625	-0.47645	0.11140
337.000	1.96042	0.95428	-0.51005	0.10146
338.000	1.97029	0.95030	-0.50808	0.13130
339.000	1.92685	0.97815	-0.51994	0.12931
340.000	1.97227	0.90259	-0.52982	0.12135
341.000	1.91105	0.93841	-0.48633	0.12334
342.000	1.92883	0.93641	-0.50412	0.16313
343.000	1.92290	0.93840	-0.49819	0.15915
344.000	1.90908	0.93046	-0.48238	0.14323
345.000	1.85773	0.90862	-0.49424	0.13727
346.000	1.84193	0.98417	-0.51994	0.18899
347.000	1.81033	0.94045	-0.52982	0.18302
348.000	1.73923	0.97627	-0.55947	0.13130
349.000	1.71158	0.93056	-0.58715	0.15517
350.000	1.67404	0.95443	-0.64052	0.15517
351.000	1.56145	0.94653	-0.69389	0.14721
352.000	1.48045	1.00423	-0.72947	0.17307
353.000	1.40932	1.02613	-0.77296	0.22677
354.000	1.37375	1.00626	-0.85005	0.19295
355.000	1.36585	1.03410	-0.94097	0.22477
356.000	1.33226	1.02815	-0.93899	0.24666
357.000	1.29867	0.99834	-0.94887	0.22676
358.000	1.34412	1.04206	-0.93109	0.26058
359.000	1.35202	0.99633	-0.95480	0.27450
360.000	1.38166	1.03807	-0.90342	0.26456
361.000	1.36585	0.99632	-0.87574	0.32623
362.000	1.42908	0.98636	-0.91132	0.33219
363.000	1.44093	1.02214	-0.85400	0.37596
364.000	1.48835	1.03405	-0.85005	0.37596
365.000	1.52786	0.99625	-0.84807	0.32026
366.000	1.49230	1.03802	-0.88958	0.36203
367.000	1.53576	0.99426	-0.88563	0.36999
368.000	1.53379	0.99625	-0.84610	0.33617
369.000	1.54169	1.03203	-0.84610	0.37795
370.000	1.56540	0.97238	-0.85993	0.33021
371.000	1.56540	0.97635	-0.84214	0.34214
372.000	1.55552	0.99823	-0.85203	0.30236
373.000	1.50415	0.96048	-0.83424	0.32623
374.000	1.52786	0.90480	-0.84017	0.28446
375.000	1.53576	0.99426	-0.85598	0.29042
376.000	1.53971	1.01016	-0.83424	0.26655
377.000	1.53576	0.99227	-0.85993	0.24666
378.000	1.51403	1.00819	-0.87970	0.30037
379.000	1.52786	0.98035	-0.86191	0.25064
380.000	1.52391	0.99625	-0.85400	0.28048
381.000	1.52786	1.00421	-0.88760	0.29639
382.000	1.53379	1.01414	-0.87772	0.24467
383.000	1.55354	1.05390	-0.84807	0.31827
384.000	1.57725	1.02406	-0.85796	0.25064
385.000	1.57132	0.95448	-0.87179	0.24666
386.000	1.56737	0.99822	-0.82633	0.26655
387.000	1.61281	1.02405	-0.89156	0.30434
388.000	1.57330	1.03003	-0.83621	0.27451
389.000	1.57725	1.04196	-0.84807	0.27451
390.000	1.54762	1.01414	-0.83819	0.28048
391.000	1.56540	1.06781	-0.83621	0.27849
392.000	1.60491	1.07375	-0.84214	0.26059
393.000	1.61281	1.05188	-0.83819	0.25462
394.000	1.59898	1.07176	-0.83819	0.29440
395.000	1.58120	1.03201	-0.87970	0.27849
396.000	1.59108	1.05189	-0.85598	0.19096
397.000	1.60096	1.03598	-0.86191	0.26058
398.000	1.61083	1.01808	-0.85005	0.27650
399.000	1.62861	1.05783	-0.83621	0.26258
400.000	1.61281	1.03001	-0.84214	0.28048
401.000	1.62466	1.08368	-0.89551	0.25660
402.000	1.61478	1.08170	-0.85598	0.22279
403.000	1.59503	1.04791	-0.85203	0.25860
404.000	1.58515	1.05587	-0.83424	0.28446
405.000	1.59305	1.07177	-0.86388	0.29241
406.000	1.55552	1.04992	-0.90342	0.26257
407.000	1.57527	1.04196	-0.87179	0.22677
408.000	1.57923	1.04593	-0.89353	0.23870
409.000	1.56342	1.09763	-0.85993	0.26059
410.000	1.56342	0.99027	-0.90539	0.24069
411.000	1.55749	1.01214	-0.84214	0.26854
412.000	1.55552	1.04395	-0.86981	0.25263
413.000	1.57330	1.06184	-0.85796	0.30037
414.000	1.58515	1.01412	-0.87179	0.33816
415.000	1.52391	1.04596	-0.81645	0.26457
416.000	1.56935	1.04196	-0.89749	0.31827
417.000	1.57923	1.06581	-0.89353	0.31827
418.000	1.52193	1.00421	-0.89156	0.26456
419.000	1.56935	0.97238	-0.85400	0.31628
420.000	1.53379	1.02011	-0.89156	0.27053
421.000	1.52193	0.96445	-0.87574	0.27650
422.000	1.54762	0.99028	-0.89156	0.24865
423.000	1.55157	0.97636	-0.88958	0.29838
424.000	1.61676	0.98826	-0.88167	0.33617
425.000	1.60491	0.94651	-0.88167	0.32424
426.000	1.58515	0.98827	-0.84214	0.31827
427.000	1.55749	0.99624	-0.85005	0.35209
428.000	1.58910	0.97833	-0.85796	0.30833
429.000	1.58120	0.93062	-0.86586	0.38789
430.000	1.57527	0.94653	-0.90934	0.33617
431.000	1.57527	0.96243	-0.88167	0.34612
432.000	1.60096	0.97833	-0.86388	0.35010
433.000	1.59305	0.97833	-0.83226	0.36005
434.000	1.62269	0.98627	-0.86191	0.36203
435.000	1.62664	1.01012	-0.82633	0.34015
436.000	1.63849	0.99222	-0.82831	0.34811
437.000	1.63651	0.99024	-0.85598	0.40579
438.000	1.66417	1.02402	-0.84017	0.34413
439.000	1.64046	0.94252	-0.84610	0.38789
440.000	1.64837	1.01607	-0.82238	0.36999
441.000	1.69577	0.98623	-0.85400	0.38391
442.000	1.66614	0.99022	-0.82633	0.39386
443.000	1.67207	1.01606	-0.84807	0.36999
444.000	1.64837	0.98824	-0.81645	0.36204
445.000	1.67207	1.02998	-0.82238	0.39187
446.000	1.65034	0.99619	-0.87179	0.31429
447.000	1.70762	1.01406	-0.83028	0.37596
448.000	1.66219	0.98227	-0.83819	0.38391
449.000	1.66614	1.02402	-0.78877	0.36403
450.000	1.63059	0.97831	-0.83028	0.36601
451.000	1.66022	1.00215	-0.82831	0.39585
452.000	1.66812	1.03396	-0.82435	0.33618
453.000	1.63059	0.98626	-0.85203	0.36999
454.000	1.56935	1.00617	-0.84214	0.34612
455.000	1.62269	1.03597	-0.82435	0.38392
456.000	1.61676	0.98229	-0.78877	0.37198
457.000	1.61478	0.99820	-0.80656	0.36204
458.000	1.61083	1.00218	-0.79668	0.36403
459.000	1.61281	1.01410	-0.82040	0.43166
460.000	1.61676	1.00019	-0.82435	0.39983
461.000	1.62664	1.04392	-0.79075	0.38392
462.000	1.59898	0.97236	-0.83226	0.40381
463.000	1.57330	0.98430	-0.80261	0.36800
464.000	1.59503	0.95845	-0.80261	0.33618
465.000	1.58515	0.96243	-0.78482	0.35010
466.000	1.59700	0.97038	-0.81052	0.37596
467.000	1.58318	0.97237	-0.79075	0.37795
468.000	1.58318	0.99225	-0.80261	0.39585
469.000	1.56540	0.97635	-0.81645	0.34214
470.000	1.59305	0.97634	-0.83424	0.37596
471.000	1.54959	0.94654	-0.81249	0.40580
472.000	1.52589	0.95251	-0.83226	0.37397
473.000	1.53379	0.96444	-0.81249	0.37994
474.000	1.61873	0.98428	-0.82238	0.36204
475.000	1.54564	0.97239	-0.82831	0.34015
476.000	1.53181	0.95251	-0.84214	0.37795
477.000	1.57725	0.98231	-0.80656	0.41375
478.000	1.57725	0.96442	-0.82435	0.37397
479.000	1.53774	0.97438	-0.81842	0.38789
480.000	1.56935	0.93460	-0.77691	0.39387
481.000	1.54959	0.99028	-0.84214	0.38192
482.000	1.56935	0.98033	-0.81645	0.37795
483.000	1.60096	0.99622	-0.78877	0.37198
484.000	1.55947	0.96642	-0.79668	0.37795
485.000	1.53576	0.95649	-0.82633	0.39585
486.000	1.56737	0.98431	-0.83226	0.36005
487.000	1.57132	0.95249	-0.84412	0.35010
488.000	1.55947	0.98232	-0.77889	0.40779
489.000	1.58120	0.94454	-0.82040	0.40779
490.000	1.55552	1.00618	-0.83226	0.39784
491.000	1.53971	0.97438	-0.81249	0.39784
492.000	1.53576	0.97239	-0.78877	0.36204
493.000	1.56145	0.96642	-0.81842	0.38193
494.000	1.52589	0.97637	-0.82831	0.38789
495.000	1.55157	1.00221	-0.79866	0.38989
496.000	1.53971	0.97040	-0.80459	0.38392
497.000	1.58515	0.97833	-0.84610	0.38988
498.000	1.56342	0.96840	-0.80261	0.36005
499.000	1.57527	0.98430	-0.82831	0.33220
500.000	1.55749	0.95449	-0.80656	0.36204
501.000	1.61676	1.03995	-0.82633	0.35209
502.000	1.59898	0.97236	-0.83424	0.36005
503.000	1.59898	1.01610	-0.84807	0.35805
504.000	1.56540	1.00021	-0.83226	0.38193
505.000	1.53379	0.96643	-0.85598	0.37198
506.000	1.59700	1.02803	-0.82435	0.38590
507.000	1.56145	1.02009	-0.81645	0.37994
508.000	1.59700	0.96242	-0.87179	0.36800
509.000	1.61478	1.02802	-0.83424	0.31032
510.000	1.60491	1.00616	-0.82238	0.35607
511.000	1.58120	0.99225	-0.85005	0.40778
512.000	1.60096	1.03002	-0.86981	0.31031
513.000	1.59898	1.04990	-0.85993	0.35209
514.000	1.61083	1.03597	-0.87970	0.37198
515.000	1.62861	1.03199	-0.87574	0.33219
516.000	1.60491	1.01212	-0.86191	0.29838
517.000	1.63651	1.00813	-0.83028	0.34413
518.000	1.59898	1.02008	-0.87970	0.35208
519.000	1.59108	0.98429	-0.85598	0.34811
520.000	1.61281	1.03995	-0.85400	0.30833
521.000	1.63454	1.02403	-0.82435	0.36402
522.000	1.63454	1.01608	-0.82040	0.36005
523.000	1.54959	1.02805	-0.85400	0.36004
524.000	1.61478	0.98826	-0.83819	0.34214
525.000	1.63256	1.00614	-0.86586	0.38391
526.000	1.57527	0.99225	-0.82238	0.35209
527.000	1.64244	1.04987	-0.80459	0.37994
528.000	1.60886	1.00417	-0.85796	0.38192
529.000	1.62466	0.98229	-0.85400	0.35209
530.000	1.60491	0.98628	-0.83424	0.34214
531.000	1.60688	0.95844	-0.80854	0.35010
532.000	1.63256	0.97235	-0.80261	0.35209
533.000	1.63849	0.99819	-0.77296	0.37000
534.000	1.58713	0.96044	-0.80459	0.38193
535.000	1.63256	1.00018	-0.80656	0.37198
536.000	1.61873	0.96241	-0.83028	0.37397
537.000	1.63256	0.98825	-0.88167	0.37396
538.000	1.58910	0.94255	-0.80261	0.37397
539.000	1.63651	0.98427	-0.79470	0.33220
540.000	1.61873	0.94850	-0.80854	0.37198
541.000	1.61281	0.94253	-0.81249	0.37198
542.000	1.63454	0.97831	-0.79470	0.37596
543.000	1.62664	0.91469	-0.80261	0.40978
544.000	1.62664	0.95247	-0.78680	0.36204
545.000	1.65034	0.96240	-0.81842	0.34214
546.000	1.65824	0.96041	-0.75319	0.32425
547.000	1.62269	0.93458	-0.77098	0.35607
548.000	1.62664	0.94849	-0.79273	0.34215
549.000	1.61281	0.96440	-0.76703	0.36801
550.000	1.63651	0.90475	-0.76110	0.33021
551.000	1.61873	0.93060	-0.78284	0.35607
552.000	1.65034	0.90673	-0.79668	0.39983
553.000	1.62664	0.96241	-0.77098	0.39387
554.000	1.63454	0.96241	-0.77691	0.37199
555.000	1.65824	0.92661	-0.80656	0.33021
556.000	1.62071	0.99024	-0.78680	0.39983
557.000	1.60491	0.92862	-0.80063	0.40182
558.000	1.61083	0.95844	-0.74726	0.38790
559.000	1.59898	0.93856	-0.81249	0.38392
560.000	1.59503	0.94055	-0.78284	0.41177
561.000	1.57725	0.95249	-0.78680	0.38989
562.000	1.57132	0.91273	-0.81249	0.41773
563.000	1.54367	0.91473	-0.81842	0.43563
564.000	1.54762	0.89882	-0.76308	0.41575
565.000	1.57923	0.90279	-0.74331	0.40580
566.000	1.54367	0.86701	-0.78087	0.39188
567.000	1.54959	0.90479	-0.81645	0.44160
568.000	1.51996	0.88492	-0.80459	0.40381
569.000	1.49428	0.90680	-0.80656	0.41177
570.000	1.56540	0.95250	-0.80261	0.40580
571.000	1.51601	0.91474	-0.79866	0.40381
572.000	1.50613	0.88890	-0.80656	0.40381
573.000	1.51008	0.96246	-0.81645	0.41773
574.000	1.48440	0.89885	-0.80656	0.40381
575.000	1.47847	0.89488	-0.75319	0.38392
576.000	1.44686	0.88495	-0.77691	0.38591
577.000	1.48242	0.91476	-0.83226	0.38590
578.000	1.48835	0.92271	-0.81249	0.38790
579.000	1.48637	0.90084	-0.83226	0.39585
580.000	1.47452	0.89488	-0.79668	0.37198
581.000	1.50218	0.91475	-0.82831	0.36203
582.000	1.50218	0.91475	-0.82040	0.34214
583.000	1.47649	0.90482	-0.84412	0.35010
584.000	1.51601	0.88293	-0.79866	0.35209
585.000	1.47057	0.92073	-0.81645	0.34413
586.000	1.54564	0.90877	-0.81645	0.35010
587.000	1.52786	0.93462	-0.78482	0.31430
588.000	1.51601	0.91872	-0.84214	0.36402
589.000	1.48440	0.95253	-0.80656	0.41177
590.000	1.52984	0.95052	-0.82040	0.37795
591.000	1.53971	0.92467	-0.80063	0.36999
592.000	1.56737	0.93858	-0.77296	0.37199
593.000	1.51008	0.98036	-0.81249	0.35010
594.000	1.48045	0.91873	-0.79866	0.35607
595.000	1.55749	0.93063	-0.76110	0.41177
596.000	1.51601	0.91673	-0.75715	0.41774
597.000	1.53576	0.90281	-0.77691	0.43564
598.000	1.50613	0.89089	-0.77098	0.37596
599.000	1.52786	0.94854	-0.80063	0.38591
600.000	1.56540	0.93063	-0.78680	0.42171
601.000	1.54959	0.95847	-0.74924	0.41575
602.000	1.52984	0.94854	-0.76308	0.41177
603.000	1.54367	0.94853	-0.79273	0.41575
604.000	1.59305	0.93857	-0.76901	0.39983
605.000	1.56540	0.98629	-0.78680	0.39585
606.000	1.57725	0.93659	-0.75122	0.39785
607.000	1.57923	0.92466	-0.78284	0.37397
608.000	1.54169	0.96841	-0.76110	0.39188
609.000	1.61478	0.91669	-0.76308	0.38790
610.000	1.55157	0.96642	-0.78087	0.42967
611.000	1.57725	0.97237	-0.77691	0.33220
612.000	1.56935	0.95250	-0.81447	0.37397
613.000	1.54564	0.96642	-0.78087	0.35607
614.000	1.55354	0.95250	-0.76901	0.33021
615.000	1.63059	0.95644	-0.78284	0.30435
616.000	1.58515	0.92465	-0.77098	0.34812
617.000	1.57527	0.93858	-0.76110	0.33817
618.000	1.57330	0.95051	-0.78482	0.36403
619.000	1.61281	0.91271	-0.79866	0.34811
620.000	1.59503	0.97435	-0.80261	0.35607
621.000	1.54564	0.92865	-0.79273	0.38392
622.000	1.57527	0.95050	-0.81447	0.38591
623.000	1.55354	0.96443	-0.80854	0.37198
624.000	1.56737	0.91074	-0.80063	0.36602
625.000	1.54564	0.93461	-0.80656	0.36602
626.000	1.54367	0.91075	-0.79273	0.35607
627.000	1.56145	0.94852	-0.79075	0.33618
628.000	1.55157	0.91473	-0.79470	0.40978
629.000	1.50613	0.93861	-0.80063	0.36204
630.000	1.53181	0.93661	-0.81842	0.33419
631.000	1.49230	0.96843	-0.74133	0.35409
632.000	1.50810	0.96843	-0.75715	0.36403
633.000	1.51996	0.92667	-0.77098	0.41973
634.000	1.52391	0.94456	-0.77494	0.40779
635.000	1.56145	0.93659	-0.74133	0.39785
636.000	1.48637	0.92072	-0.76308	0.39188
637.000	1.53379	0.96444	-0.75319	0.37398
638.000	1.49032	0.93066	-0.81249	0.36403
639.000	1.52391	0.96842	-0.74331	0.40580
640.000	1.50810	0.94457	-0.73540	0.40779
641.000	1.51403	0.95451	-0.75122	0.39387
642.000	1.46069	0.88693	-0.74924	0.41774
643.000	1.48637	0.95850	-0.77098	0.37596
644.000	1.51601	0.94457	-0.76901	0.41177
645.000	1.49625	0.90680	-0.74726	0.37199
646.000	1.46069	0.99430	-0.74726	0.37796
647.000	1.49625	0.96843	-0.71168	0.35807
648.000	1.48045	0.89885	-0.73540	0.37995
649.000	1.45476	0.96646	-0.76308	0.39586
650.000	1.49032	0.97042	-0.73540	0.41177
651.000	1.45871	0.96248	-0.74133	0.40779
652.000	1.48835	0.98633	-0.72947	0.40581
653.000	1.45279	0.96448	-0.73936	0.37995
654.000	1.49230	0.97241	-0.73343	0.37995
655.000	1.45279	0.98833	-0.73343	0.41973
656.000	1.46266	0.98634	-0.73738	0.39984
657.000	1.46069	0.96248	-0.74726	0.37994
658.000	1.49230	1.04001	-0.76308	0.36204
659.000	1.44488	0.99629	-0.75319	0.38989
660.000	1.39154	0.96450	-0.75122	0.37597
661.000	1.44883	0.96050	-0.75517	0.37398
662.000	1.42710	0.97045	-0.75319	0.37398
663.000	1.44488	0.92869	-0.76308	0.39586
664.000	1.45674	0.94260	-0.71366	0.43564
665.000	1.46662	0.97043	-0.76110	0.40580
666.000	1.39351	0.97842	-0.77098	0.39983
667.000	1.38561	0.95059	-0.73343	0.40581
668.000	1.41129	0.93865	-0.73738	0.35806
669.000	1.39746	0.92076	-0.75912	0.35607
670.000	1.44093	0.95056	-0.73145	0.33419
671.000	1.42117	0.90683	-0.73145	0.39785
672.000	1.42315	0.93069	-0.74133	0.36801
673.000	1.39549	0.96052	-0.72552	0.37995
674.000	1.42315	0.91677	-0.73738	0.36801
675.000	1.46464	0.93266	-0.70971	0.39387
676.000	1.41722	0.93069	-0.74133	0.37000
677.000	1.41129	0.88894	-0.69982	0.37995
678.000	1.43698	0.92074	-0.69192	0.39586
679.000	1.41525	0.90285	-0.71564	0.41177
680.000	1.39944	0.89491	-0.71959	0.33618
681.000	1.42513	0.94858	-0.70971	0.35807
682.000	1.42315	0.93665	-0.73936	0.37597
683.000	1.45081	0.94857	-0.75122	0.36005
684.000	1.46859	0.94459	-0.74331	0.38989
685.000	1.43896	0.97641	-0.74726	0.39586
686.000	1.48835	1.01218	-0.73936	0.39387
687.000	1.47057	0.96248	-0.72354	0.44758
688.000	1.50218	1.00819	-0.71366	0.43564
689.000	1.46266	0.96845	-0.69192	0.36205
690.000	1.45476	0.99430	-0.71168	0.43763
691.000	1.51206	1.00222	-0.73540	0.38392
692.000	1.43303	0.99828	-0.70773	0.42570
693.000	1.45871	0.98237	-0.73540	0.42172
694.000	1.48242	0.98832	-0.72354	0.41177
695.000	1.49625	1.05194	-0.73738	0.38193
696.000	1.51206	1.00024	-0.69389	0.40382
697.000	1.48835	0.99428	-0.73936	0.41376
698.000	1.50218	1.01018	-0.73738	0.42172
699.000	1.47254	0.97838	-0.75122	0.41575
700.000	1.53576	0.99625	-0.74133	0.44559
701.000	1.45279	0.98436	-0.76308	0.44757
702.000	1.47649	1.00224	-0.70971	0.40183
703.000	1.50218	1.01813	-0.72157	0.43564
704.000	1.49032	1.04796	-0.72750	0.43763
705.000	1.53774	1.03601	-0.71761	0.43564
706.000	1.49823	1.02808	-0.68599	0.38791
707.000	1.50810	1.00620	-0.70180	0.38791
708.000	1.52786	1.00023	-0.75319	0.37795
709.000	1.54564	1.00221	-0.74133	0.40779
710.000	1.51206	1.02012	-0.70971	0.39188
711.000	1.50218	0.98235	-0.79075	0.41177
712.000	1.48835	0.99031	-0.74331	0.37199
713.000	1.52193	0.97637	-0.74924	0.35806
714.000	1.43500	1.00027	-0.71564	0.38989
715.000	1.45674	0.98038	-0.73145	0.38591
716.000	1.49230	0.99030	-0.75122	0.36204
717.000	1.49625	0.97042	-0.74924	0.38392
718.000	1.46266	0.98634	-0.72354	0.39984
719.000	1.50810	1.00223	-0.71761	0.38194
720.000	1.50218	1.01416	-0.74529	0.39586
721.000	1.49032	1.01615	-0.77691	0.36602
722.000	1.53181	1.00619	-0.74331	0.34215
723.000	1.47847	0.99031	-0.77098	0.38591
724.000	1.50218	1.01615	-0.76505	0.33021
725.000	1.49428	0.99826	-0.74726	0.37398
726.000	1.49823	1.00422	-0.76505	0.38193
727.000	1.49625	0.99030	-0.74133	0.37597
728.000	1.47452	1.00025	-0.73540	0.34215
729.000	1.45081	1.00026	-0.75517	0.34215
730.000	1.47649	0.98832	-0.73540	0.35011
731.000	1.45871	0.98634	-0.75912	0.38392
732.000	1.44686	1.02214	-0.71168	0.37597
733.000	1.49032	1.01416	-0.75319	0.36801
734.000	1.49032	1.02808	-0.73936	0.35409
735.000	1.49823	1.02410	-0.73343	0.37995
736.000	1.43500	1.03009	-0.74529	0.35806
737.000	1.42710	1.01419	-0.76901	0.39586
738.000	1.46464	1.00026	-0.75122	0.39586
739.000	1.45081	1.02015	-0.77494	0.35607
740.000	1.46662	1.03008	-0.76901	0.39188
741.000	1.44291	1.05594	-0.72947	0.39387
742.000	1.45081	1.09967	-0.75517	0.37597
743.000	1.43303	1.04799	-0.76703	0.41177
744.000	1.45476	1.08774	-0.75319	0.38591
745.000	1.44093	1.11160	-0.75319	0.39387
746.000	1.46069	1.10762	-0.74726	0.42570
747.000	1.45476	1.04997	-0.74924	0.42768
748.000	1.41920	1.06191	-0.70575	0.39785
749.000	1.40734	1.05198	-0.72947	0.39188
750.000	1.38758	1.05795	-0.72354	0.39188
751.000	1.43500	1.08576	-0.70773	0.40382
752.000	1.42513	1.07185	-0.67017	0.39586
753.000	1.38561	1.06789	-0.72750	0.38392
754.000	1.41129	1.08975	-0.67808	0.37398
755.000	1.36980	1.03410	-0.68203	0.42371
756.000	1.40537	1.10566	-0.69389	0.39188
757.000	1.40339	1.09771	-0.68599	0.39984
758.000	1.40142	1.08180	-0.66622	0.36603
759.000	1.39746	1.10168	-0.69982	0.40581
760.000	1.37375	1.02018	-0.67808	0.39586
761.000	1.39351	1.05198	-0.67017	0.40581
762.000	1.45081	1.07780	-0.65238	0.36404
763.000	1.39351	1.08180	-0.67215	0.37597
764.000	1.40142	1.04999	-0.64448	0.41974
765.000	1.44093	1.10564	-0.66029	0.46748
766.000	1.43105	1.05992	-0.68796	0.42769
767.000	1.46266	1.08972	-0.70575	0.45355
768.000	1.46266	1.07581	-0.64645	0.47146
769.000	1.47649	1.08177	-0.65238	0.48339
770.000	1.44686	1.07979	-0.65831	0.46748
771.000	1.48637	1.07580	-0.65238	0.46549
772.000	1.49428	1.07778	-0.66029	0.45753
773.000	1.51206	1.07181	-0.63855	0.47742
774.000	1.51206	1.10759	-0.65041	0.43167
775.000	1.52786	1.06385	-0.66029	0.43764
776.000	1.48835	1.04001	-0.68006	0.47543
777.000	1.47847	1.03206	-0.64843	0.42173
778.000	1.50020	1.01217	-0.65238	0.42769
779.000	1.49428	1.05194	-0.66424	0.45753
780.000	1.46859	1.02610	-0.68006	0.46747
781.000	1.50613	1.02609	-0.69982	0.43167
782.000	1.48242	1.00025	-0.70378	0.39785
783.000	1.52391	1.05590	-0.68599	0.42769
784.000	1.50218	1.01416	-0.66622	0.44758
785.000	1.50613	1.04597	-0.66029	0.40382
786.000	1.48045	1.04200	-0.68796	0.42172
787.000	1.48242	1.04598	-0.65238	0.41775
788.000	1.51206	1.08771	-0.68006	0.42371
789.000	1.48835	1.06586	-0.69982	0.44360
790.000	1.49823	1.04398	-0.71366	0.45951
791.000	1.49625	1.12947	-0.69982	0.42172
792.000	1.50613	1.09368	-0.74133	0.40580
793.000	1.48637	1.06784	-0.68006	0.43963
794.000	1.45081	1.07184	-0.70773	0.38989
795.000	1.50810	1.09368	-0.67808	0.45952
796.000	1.49032	1.08375	-0.69785	0.48140
797.000	1.48242	1.07977	-0.68401	0.41377
798.000	1.47057	1.10761	-0.72552	0.46946
799.000	1.48637	1.12351	-0.70180	0.43962
800.000	1.44883	1.10762	-0.69389	0.43565
801.000	1.47254	1.10761	-0.65238	0.43963
802.000	1.46069	1.08774	-0.68994	0.43565
803.000	1.48045	1.07779	-0.66820	0.42769
804.000	1.43896	1.13546	-0.67808	0.40581
805.000	1.44686	1.09967	-0.69982	0.44957
806.000	1.44883	1.09967	-0.70971	0.46946
807.000	1.44488	1.09371	-0.70378	0.42968
808.000	1.46069	1.10563	-0.68401	0.42371
809.000	1.47057	1.15334	-0.67413	0.44957
810.000	1.50810	1.11356	-0.64843	0.44759
811.000	1.47057	1.16527	-0.67610	0.44360
812.000	1.49823	1.16127	-0.65831	0.41974
813.000	1.49230	1.16724	-0.66622	0.45753
814.000	1.49823	1.09965	-0.67413	0.43565
815.000	1.48637	1.18315	-0.66820	0.43764
816.000	1.51798	1.12151	-0.70378	0.43167
817.000	1.51403	1.14337	-0.68994	0.40780
818.000	1.49230	1.17917	-0.67808	0.40382
819.000	1.51206	1.13741	-0.68994	0.40183
820.000	1.51008	1.15133	-0.67808	0.43167
821.000	1.49428	1.13543	-0.69587	0.44957
822.000	1.52391	1.15331	-0.66424	0.42968
823.000	1.49823	1.12350	-0.66424	0.40780
824.000	1.49823	1.14935	-0.67413	0.38990
825.000	1.49625	1.11555	-0.68599	0.41178
826.000	1.49428	1.11357	-0.69785	0.42769
827.000	1.51601	1.13343	-0.66622	0.44361
828.000	1.48835	1.13941	-0.68203	0.43963
829.000	1.49230	1.07778	-0.67017	0.41775
830.000	1.50020	1.12151	-0.69389	0.40581
831.000	1.54367	1.16324	-0.66227	0.44957
832.000	1.52193	1.12349	-0.70971	0.44758
833.000	1.53971	1.17119	-0.69389	0.43366
834.000	1.51798	1.16723	-0.69587	0.41973
835.000	1.52193	1.16126	-0.68796	0.45156
836.000	1.53774	1.14933	-0.63262	0.46748
837.000	1.53774	1.16523	-0.66227	0.43565
838.000	1.56145	1.16124	-0.66424	0.43167
839.000	1.51601	1.16524	-0.68401	0.42570
840.000	1.54564	1.15131	-0.68994	0.45355
841.000	1.54564	1.16324	-0.68006	0.46946
842.000	1.55354	1.14932	-0.67610	0.44559
843.000	1.54959	1.13342	-0.67215	0.43565
844.000	1.52391	1.15729	-0.67215	0.49731
845.000	1.55552	1.17913	-0.69192	0.40382
846.000	1.53576	1.08969	-0.66820	0.42570
847.000	1.51798	1.12151	-0.69192	0.38194
848.000	1.55749	1.11353	-0.66424	0.40382
849.000	1.56145	1.16124	-0.67808	0.40581
850.000	1.55749	1.13540	-0.70773	0.36801
851.000	1.51601	1.11355	-0.66622	0.41974
852.000	1.55157	1.19703	-0.73343	0.37398
853.000	1.56342	1.12546	-0.66820	0.41775
854.000	1.52786	1.13343	-0.71168	0.39586
855.000	1.53181	1.13939	-0.69389	0.45156
856.000	1.49428	1.13742	-0.64448	0.44560
857.000	1.49428	1.13941	-0.69389	0.40581
858.000	1.47649	1.11954	-0.66622	0.41775
859.000	1.49230	1.10363	-0.71366	0.42172
860.000	1.53379	1.17915	-0.66227	0.42769
861.000	1.51798	1.15132	-0.67017	0.39586
862.000	1.46464	1.15732	-0.69389	0.40382
863.000	1.50415	1.13145	-0.68401	0.44957
864.000	1.48242	1.14339	-0.67413	0.47145
865.000	1.43896	1.12155	-0.68796	0.42968
866.000	1.50810	1.15332	-0.66820	0.42769
867.000	1.46266	1.13943	-0.70378	0.38989
868.000	1.45476	1.13545	-0.68994	0.43366
869.000	1.42710	1.12950	-0.69192	0.48140
870.000	1.44093	1.16528	-0.67017	0.43963
871.000	1.44488	1.15931	-0.64448	0.45156
872.000	1.40142	1.13548	-0.68599	0.45753
873.000	1.41327	1.13349	-0.68796	0.46946
874.000	1.40734	1.13747	-0.65436	0.50925
875.000	1.42315	1.13547	-0.63855	0.45156
876.000	1.38758	1.13350	-0.67808	0.46350
877.000	1.45081	1.14341	-0.65238	0.46549
878.000	1.40734	1.13747	-0.66227	0.44361
879.000	1.39351	1.13151	-0.66424	0.45156
880.000	1.40142	1.13747	-0.66424	0.43565
881.000	1.41722	1.15138	-0.66820	0.41775
882.000	1.40537	1.13945	-0.66424	0.41974
883.000	1.38561	1.16730	-0.64448	0.40183
884.000	1.40734	1.16331	-0.65041	0.41377
885.000	1.43303	1.12552	-0.66029	0.41377
886.000	1.43105	1.20306	-0.65436	0.42371
887.000	1.43896	1.15733	-0.62471	0.41974
888.000	1.37573	1.15338	-0.65831	0.45156
889.000	1.39351	1.18320	-0.65831	0.42570
890.000	1.41920	1.15138	-0.62273	0.43764
891.000	1.39549	1.14940	-0.62668	0.38791
892.000	1.42117	1.16131	-0.66820	0.42172
893.000	1.40537	1.12753	-0.66820	0.40581
894.000	1.39351	1.16729	-0.66622	0.38393
895.000	1.39746	1.19711	-0.65436	0.38194
896.000	1.40734	1.17723	-0.66029	0.40382
897.000	1.39351	1.16530	-0.63262	0.40581
898.000	1.41920	1.22095	-0.67413	0.42371
899.000	1.37968	1.11959	-0.67610	0.36802
900.000	1.37375	1.14345	-0.65041	0.41576
901.000	1.41920	1.15933	-0.66622	0.40780
902.000	1.39549	1.18717	-0.67413	0.42968
903.000	1.40339	1.13548	-0.66029	0.41178
904.000	1.40339	1.14343	-0.65831	0.35608
905.000	1.38561	1.13748	-0.66820	0.41576
906.000	1.36190	1.22894	-0.65436	0.36006
907.000	1.41722	1.18120	-0.63855	0.36802
908.000	1.40734	1.18120	-0.65634	0.37995
909.000	1.38561	1.17922	-0.62273	0.37001
910.000	1.39746	1.12355	-0.67610	0.41775
911.000	1.42908	1.11559	-0.64052	0.41576
912.000	1.41327	1.15734	-0.67215	0.42570
913.000	1.44291	1.18317	-0.64843	0.39587
914.000	1.40932	1.12355	-0.68599	0.42570
915.000	1.43500	1.14739	-0.66424	0.44559
916.000	1.41327	1.18319	-0.67610	0.39586
917.000	1.42908	1.17324	-0.66820	0.38592
918.000	1.41525	1.17523	-0.64250	0.37796
919.000	1.45476	1.19708	-0.65436	0.42371
920.000	1.44686	1.21100	-0.64052	0.44958
921.000	1.43698	1.16131	-0.66029	0.41178
922.000	1.41129	1.19114	-0.65041	0.43366
923.000	1.37968	1.16730	-0.67808	0.44758
924.000	1.45279	1.16130	-0.63262	0.40184
925.000	1.42908	1.19511	-0.62471	0.42173
926.000	1.44883	1.23883	-0.65831	0.41775
927.000	1.44291	1.20703	-0.68203	0.42570
928.000	1.43500	1.21498	-0.69587	0.40979
929.000	1.39746	1.23886	-0.71168	0.43167
930.000	1.39746	1.18916	-0.71959	0.45951
931.000	1.48045	1.23881	-0.73738	0.48139
932.000	1.49823	1.24477	-0.69192	0.52317
933.000	1.54959	1.21094	-0.69389	0.58682
934.000	1.64441	1.26257	-0.64645	0.54704
935.000	1.62071	1.22084	-0.56145	0.54904
936.000	1.65824	1.26455	-0.41319	0.55900
937.000	1.73330	1.21680	-0.29259	0.51922
938.000	1.86563	1.22068	-0.02966	0.47745
939.000	1.95252	1.10734	0.35190	0.44363
940.000	2.01571	1.08941	0.57727	0.39985
941.000	2.18550	1.14890	0.78284	0.37000
942.000	2.37697	1.02556	1.05362	0.45748
943.000	2.56838	0.96382	1.36980	0.45942
944.000	2.70056	0.92795	1.72540	0.45536
945.000	2.98455	0.95156	2.10061	0.45129
946.000	3.17182	0.87394	2.35329	0.36574
947.000	3.34918	0.82812	2.58811	0.35972
948.000	3.45753	0.78633	2.77157	0.28813
949.000	3.69581	0.79605	2.98061	0.25629
950.000	4.01858	0.87512	3.23489	0.16883
951.000	4.25065	0.86098	3.54222	0.12708
952.000	4.34894	0.83112	3.71156	0.15088
953.000	4.47276	0.86270	3.83164	0.18460
954.000	4.70455	0.77718	3.96545	0.21633
955.000	4.84983	0.68981	4.08939	0.22423
956.000	4.92049	0.63425	4.24868	0.26783
957.000	5.07353	0.62023	4.42166	0.24000
958.000	5.25198	0.57251	4.52974	0.24195
959.000	5.40093	0.57238	4.61421	0.20623
960.000	5.54786	0.52274	4.72811	0.17844
961.000	5.65164	0.51473	4.76149	0.14869
962.000	5.70841	0.48300	4.78309	0.15265
963.000	5.77692	0.49878	4.86946	0.08722
964.000	5.92756	0.44720	4.83806	0.03766
965.000	6.01361	0.43130	4.93226	0.00000
966.000	6.13481	0.42923	4.93030	-0.03964
967.000	6.21884	0.39158	5.02056	-0.15062
968.000	6.32237	0.37964	4.99505	-0.14864
969.000	6.39267	0.37168	5.05587	-0.20015
970.000	6.45124	0.35583	5.08333	-0.30715
971.000	6.51369	0.38148	5.10295	-0.29921
972.000	6.58979	0.35573	5.08529	-0.34678
973.000	6.63466	0.32210	5.04410	-0.39436
974.000	6.60540	0.32607	5.07156	-0.47162
975.000	6.65027	0.30826	5.07941	-0.46369
976.000	6.67172	0.33393	5.02841	-0.52119
977.000	6.67952	0.33986	5.00879	-0.53904
978.000	6.68927	0.32207	5.01075	-0.59651
979.000	6.64051	0.30629	4.99113	-0.57671
980.000	6.67367	0.33986	4.94993	-0.55891
981.000	6.64637	0.30826	4.94011	-0.56685
982.000	6.65222	0.31419	4.90086	-0.55301
983.000	6.62881	0.35372	4.92049	-0.56686
984.000	6.64637	0.33790	4.92834	-0.60649
985.000	6.63466	0.34779	4.90479	-0.54706
986.000	6.63661	0.35174	4.88124	-0.53320
987.000	6.69317	0.35368	4.91264	-0.46183
988.000	6.66587	0.33987	4.86750	-0.46186
989.000	6.64832	0.36754	4.87339	-0.48366
990.000	6.67562	0.34974	4.88909	-0.48563
991.000	6.69122	0.38529	4.87339	-0.44996
992.000	6.68147	0.36554	4.84395	-0.46386
993.000	6.69512	0.37936	4.85572	-0.42420
994.000	6.70292	0.38528	4.82628	-0.44008
995.000	6.70487	0.40109	4.86357	-0.45393
996.000	6.70292	0.40109	4.84983	-0.48169
997.000	6.71657	0.40305	4.83020	-0.44999
998.000	6.72437	0.39910	4.82039	-0.45000
999.000	6.73217	0.44650	4.79880	-0.44010
1000.000	6.75167	0.45439	4.77916	-0.52337
1001.000	6.70487	0.44850	4.74186	-0.48573
1002.000	6.71657	0.46825	4.77327	-0.44408
1003.000	6.72827	0.49195	4.76738	-0.46985
1004.000	6.72632	0.45639	4.79487	-0.44803
1005.000	6.74192	0.49391	4.75757	-0.45202
1006.000	6.72242	0.48800	4.76542	-0.49563
1007.000	6.74972	0.50180	4.72811	-0.45204
1008.000	6.75362	0.51168	4.73008	-0.47385
1009.000	6.72437	0.48207	4.76935	-0.47977
1010.000	6.72047	0.49788	4.68295	-0.44810
1011.000	6.72827	0.50380	4.73008	-0.42825
1012.000	6.67172	0.45249	4.73597	-0.45600
1013.000	6.73022	0.53343	4.74579	-0.44013
1014.000	6.71267	0.52752	4.69866	-0.42232
1015.000	6.69512	0.54335	4.69866	-0.44413
1016.000	6.71852	0.54530	4.67902	-0.45009
1017.000	6.71462	0.57494	4.72419	-0.46790
1018.000	6.69707	0.57298	4.67902	-0.43819
1019.000	6.67367	0.54337	4.68688	-0.50758
1020.000	6.68147	0.55127	4.70062	-0.42232
1021.000	6.64441	0.57107	4.66920	-0.40647
1022.000	6.69512	0.56706	4.66724	-0.42630
1023.000	6.66977	0.61253	4.67706	-0.43026
1024.000	6.67952	0.59276	4.69670	-0.43620
1025.000	6.71267	0.59074	4.67902	-0.40250
1026.000	6.70682	0.60260	4.66135	-0.43027
1027.000	6.66002	0.62044	4.67902	-0.44811
1028.000	6.70097	0.61446	4.67117	-0.39656
1029.000	6.64051	0.64418	4.68099	-0.38664
1030.000	6.70292	0.63422	4.66920	-0.38268
1031.000	6.69122	0.67770	4.68295	-0.39655
1032.000	6.70097	0.67966	4.68295	-0.36681
1033.000	6.69122	0.65794	4.67706	-0.33113
1034.000	6.69317	0.67177	4.68491	-0.37276
1035.000	6.67367	0.67377	4.69080	-0.33310
1036.000	6.68732	0.68165	4.70651	-0.30732
1037.000	6.65222	0.65997	4.67509	-0.34302
1038.000	6.73802	0.69739	4.67902	-0.33509
1039.000	6.69902	0.72115	4.70651	-0.29939
1040.000	6.66782	0.68958	4.72419	-0.32119
1041.000	6.70877	0.70335	4.70259	-0.28155
1042.000	6.69902	0.71917	4.70651	-0.30335
1043.000	6.67562	0.71131	4.70651	-0.35094
1044.000	6.65222	0.67775	4.73008	-0.30136
1045.000	6.67757	0.69747	4.72419	-0.32516
1046.000	6.69317	0.72116	4.72222	-0.31128
1047.000	6.72827	0.68357	4.69866	-0.31922
1048.000	6.70682	0.70731	4.72026	-0.31128
1049.000	6.70292	0.72905	4.73597	-0.28550
1050.000	6.66002	0.75874	4.72419	-0.32119
1051.000	6.67757	0.73501	4.69277	-0.31129
1052.000	6.68732	0.73500	4.70455	-0.35887
1053.000	6.66587	0.77652	4.73990	-0.30136
1054.000	6.65027	0.76073	4.72222	-0.33110
1055.000	6.67952	0.75871	4.71830	-0.29344
1056.000	6.66782	0.76071	4.71437	-0.34102
1057.000	6.69122	0.76462	4.72222	-0.32714
1058.000	6.68342	0.73698	4.70455	-0.32318
1059.000	6.66977	0.78836	4.75757	-0.33902
1060.000	6.69317	0.77647	4.75953	-0.35488
1061.000	6.70682	0.74089	4.71830	-0.34300
1062.000	6.70877	0.78237	4.71830	-0.34300
1063.000	6.69902	0.77449	4.74579	-0.35885
1064.000	6.66977	0.73305	4.74382	-0.37273
1065.000	6.70682	0.79225	4.73400	-0.33110
1066.000	6.70292	0.74880	4.74382	-0.32713
1067.000	6.74777	0.78231	4.73204	-0.35291
1068.000	6.69317	0.77450	4.72026	-0.33309
1069.000	6.73412	0.78628	4.74382	-0.30929
1070.000	6.73412	0.78036	4.73597	-0.31127
1071.000	6.70682	0.75670	4.70651	-0.33904
1072.000	6.70682	0.77052	4.70259	-0.30930
1073.000	6.73217	0.77641	4.74775	-0.30730
1074.000	6.77702	0.83362	4.73990	-0.32118
1075.000	6.74972	0.81589	4.73990	-0.30929
1076.000	6.77312	0.80005	4.75560	-0.31325
1077.000	6.76142	0.81587	4.76346	-0.31721
1078.000	6.73802	0.85344	4.75757	-0.33704
1079.000	6.78871	0.83952	4.74186	-0.28748
1080.000	6.79261	0.84742	4.73204	-0.32912
1081.000	6.80431	0.87307	4.77131	-0.30134
1082.000	6.81015	0.81776	4.77131	-0.30729
1083.000	6.75167	0.89292	4.77720	-0.33108
1084.000	6.77702	0.88892	4.76738	-0.34694
1085.000	6.79846	0.90073	4.79880	-0.31323
1086.000	6.79456	0.87901	4.77916	-0.25971
1087.000	6.75167	0.92452	4.78309	-0.33306
1088.000	6.79456	0.92049	4.79094	-0.32314
1089.000	6.73217	0.88308	4.79487	-0.32710
1090.000	6.78091	0.93039	4.77131	-0.31522
1091.000	6.78091	0.89089	4.76935	-0.33505
1092.000	6.75947	0.93240	4.78898	-0.32909
1093.000	6.80431	0.89874	4.75168	-0.34299
1094.000	6.77312	0.90275	4.77720	-0.34892
1095.000	6.77896	0.93039	4.77327	-0.36875
1096.000	6.75557	0.92254	4.75757	-0.38462
1097.000	6.80041	0.92048	4.75757	-0.39453
1098.000	6.75947	0.91660	4.75168	-0.43022
1099.000	6.77507	0.93040	4.76346	-0.39056
1100.000	6.77702	0.94620	4.74971	-0.44608
1101.000	6.78286	0.93038	4.73793	-0.34497
1102.000	6.77896	0.92249	4.71437	-0.44808
1103.000	6.77312	0.97188	4.72811	-0.44807
1104.000	6.73802	0.89294	4.77327	-0.45597
1105.000	6.76142	0.91463	4.75757	-0.48374
1106.000	6.79846	0.91455	4.73008	-0.43419
1107.000	6.81600	0.94612	4.76149	-0.48572
1108.000	6.76922	0.88103	4.76346	-0.51744
1109.000	6.81795	0.92044	4.76935	-0.51347
1110.000	6.78871	0.92840	4.77524	-0.51743
1111.000	6.79846	0.91850	4.75953	-0.47977
1112.000	6.77896	0.87114	4.75757	-0.50555
1113.000	6.77312	0.89683	4.79094	-0.47975
1114.000	6.77507	0.88695	4.71830	-0.52540
1115.000	6.79066	0.84742	4.77327	-0.56500
1116.000	6.73997	0.81788	4.73990	-0.54323
1117.000	6.76142	0.85340	4.73597	-0.55116
1118.000	6.74972	0.86922	4.73204	-0.54521
1119.000	6.76532	0.79611	4.73597	-0.54918
1120.000	6.72047	0.83371	4.74775	-0.56304
1121.000	6.72827	0.84753	4.82824	-0.55307
1122.000	6.72632	0.85543	4.80468	-0.57687
1123.000	6.74972	0.88502	4.77131	-0.55509
1124.000	6.78091	0.85139	4.75953	-0.57493
1125.000	6.78871	0.88100	4.73990	-0.54323
1126.000	6.75167	0.86526	4.74382	-0.59477
1127.000	6.76337	0.86722	4.74775	-0.57692
1128.000	6.73997	0.86133	4.79880	-0.56697
1129.000	6.77117	0.84153	4.78505	-0.59869
1130.000	6.74387	0.87911	4.74775	-0.59476
1131.000	6.75362	0.89884	4.78702	-0.55706
1132.000	6.77507	0.88695	4.75560	-0.59277
1133.000	6.76922	0.90474	4.78113	-0.62843
1134.000	6.78676	0.85138	4.79880	-0.55111
1135.000	6.76142	0.90277	4.79094	-0.58878
1136.000	6.77896	0.86917	4.82039	-0.54514
1137.000	6.78286	0.89878	4.77131	-0.57095
1138.000	6.78871	0.89285	4.76542	-0.59276
1139.000	6.74972	0.90280	4.82628	-0.60460
1140.000	6.79261	0.88889	4.83413	-0.60262
1141.000	6.81015	0.91256	4.81646	-0.56299
1142.000	6.81990	0.92636	4.80665	-0.54912
1143.000	6.79846	0.88296	4.77524	-0.55906
1144.000	6.83354	0.93424	4.80272	-0.52930
1145.000	6.82770	0.92437	4.79880	-0.57489
1146.000	6.84719	0.91841	4.80861	-0.56299
1147.000	6.85108	0.92235	4.78505	-0.57094
1148.000	6.84134	0.92237	4.79291	-0.59274
1149.000	6.80820	0.94218	4.82039	-0.59668
1150.000	6.84134	0.92237	4.78898	-0.58283
1151.000	6.85498	0.88878	4.80272	-0.55309
1152.000	6.85498	0.88483	4.79094	-0.52534
1153.000	6.81210	0.88886	4.78898	-0.58878
1154.000	6.83354	0.86314	4.82039	-0.55307
1155.000	6.82380	0.86908	4.81843	-0.57884
1156.000	6.86667	0.89270	4.82824	-0.58676
1157.000	6.83159	0.89869	4.81450	-0.55902
1158.000	6.83939	0.85918	4.81843	-0.59272
1159.000	6.83354	0.87104	4.76935	-0.54717
1160.000	6.81795	0.92637	4.79487	-0.55309
1161.000	6.83939	0.88880	4.79683	-0.57688
1162.000	6.83744	0.87498	4.79880	-0.50948
1163.000	6.86862	0.89072	4.83609	-0.52729
1164.000	6.84329	0.89670	4.82235	-0.59470
1165.000	6.86278	0.89074	4.80468	-0.54516
1166.000	6.82770	0.89475	4.81646	-0.53127
1167.000	6.83354	0.88882	4.85769	-0.54115
1168.000	6.86083	0.96183	4.81450	-0.55506
1169.000	6.83159	0.89474	4.85180	-0.53521
1170.000	6.86667	0.88085	4.85376	-0.52926
1171.000	6.82380	0.86316	4.82235	-0.54514
1172.000	6.85303	0.95592	4.85180	-0.52133
1173.000	6.83549	0.92436	4.84787	-0.49160
1174.000	6.79456	0.88494	4.82039	-0.53721
1175.000	6.81405	0.89675	4.87142	-0.49159
1176.000	6.83354	0.92831	4.86750	-0.53123
1177.000	6.80626	0.87307	4.80468	-0.52732
1178.000	6.83939	0.86906	4.89694	-0.51337
1179.000	6.83159	0.88882	4.85180	-0.49953
1180.000	6.80431	0.92639	4.88124	-0.51536
1181.000	6.85303	0.90063	4.85965	-0.47574
1182.000	6.87057	0.90652	4.87535	-0.55501
1183.000	6.83549	0.91646	4.89105	-0.50941
1184.000	6.86278	0.92036	4.87928	-0.53717
1185.000	6.83744	0.92040	4.87535	-0.51933
1186.000	6.87252	0.93218	4.91068	-0.49354
1187.000	6.85888	0.95788	4.89694	-0.55499
1188.000	6.91539	0.92420	4.87731	-0.49555
1189.000	6.89785	0.92424	4.89890	-0.53319
1190.000	6.88811	0.98547	4.89301	-0.51337
1191.000	6.89396	0.97361	4.94404	-0.52919
1192.000	6.92318	0.99724	4.88516	-0.49158
1193.000	6.92708	0.97749	4.91068	-0.48958
1194.000	6.91149	1.00121	4.95189	-0.51135
1195.000	6.93292	0.96168	4.92638	-0.51533
1196.000	6.90565	0.96766	4.92834	-0.53316
1197.000	6.89006	0.97362	4.91460	-0.46975
1198.000	6.91928	0.95381	4.92049	-0.45786
1199.000	6.87642	1.02696	4.95581	-0.44792
1200.000	6.94071	1.01497	4.94993	-0.45585
1201.000	6.92513	0.96959	4.94404	-0.49351
1202.000	6.95240	0.98928	4.96366	-0.47963
1203.000	6.93097	0.95774	4.95974	-0.52918
1204.000	6.94461	1.02088	4.96562	-0.44197
1205.000	6.94851	1.02680	4.99113	-0.51726
1206.000	6.97383	1.02280	5.00879	-0.50139
1207.000	6.97188	1.04649	4.96759	-0.49548
1208.000	6.95240	1.03074	4.98132	-0.48556
1209.000	6.91928	1.03081	4.96170	-0.48161
1210.000	6.95825	1.06034	5.00094	-0.45384
1211.000	6.94461	1.02878	4.99309	-0.44790
1212.000	6.98941	1.03658	4.97151	-0.48160
1213.000	6.97967	1.03858	4.96562	-0.52124
1214.000	6.99526	1.00103	4.97347	-0.46773
1215.000	6.97188	1.07807	4.97543	-0.47565
1216.000	6.99526	1.08197	4.97740	-0.46971
1217.000	6.97578	1.04056	4.98328	-0.46574
1218.000	7.01084	1.04048	4.98917	-0.48159
1219.000	6.96994	0.99122	4.98524	-0.51132
1220.000	6.99136	1.03460	4.99309	-0.46772
1221.000	7.01473	1.03850	5.03822	-0.44787
1222.000	7.02836	1.04834	4.99898	-0.50735
1223.000	7.01473	1.04837	5.00094	-0.47762
1224.000	7.01473	1.06811	5.03822	-0.46768
1225.000	7.00889	1.04048	4.98328	-0.45187
1226.000	7.06342	1.01865	5.02252	-0.47760
1227.000	7.04200	1.05423	4.99898	-0.47960
1228.000	7.01863	1.04441	5.01271	-0.53111
1229.000	7.07899	1.07980	5.01075	-0.53508
1230.000	7.05563	1.00090	5.01860	-0.50337
1231.000	7.03810	1.02858	5.03822	-0.53308
1232.000	7.03031	1.03846	5.00094	-0.54301
1233.000	7.03615	1.02661	5.01467	-0.54697
1234.000	7.05368	1.02657	4.99898	-0.50536
1235.000	7.01668	0.99704	5.00683	-0.56283
1236.000	7.05368	1.04236	4.99309	-0.55095
1237.000	7.06147	1.04037	4.97347	-0.50935
1238.000	7.01863	0.91018	4.97936	-0.53907
1239.000	7.05368	0.99696	5.01664	-0.55093
1240.000	7.00499	0.91613	5.05979	-0.53504
1241.000	7.05173	0.96144	5.06764	-0.55485
1242.000	7.03810	1.00686	5.04214	-0.51722
1243.000	7.01863	0.95361	5.04214	-0.54694
1244.000	7.00305	0.94377	5.05195	-0.54495
1245.000	7.09067	0.98899	4.98524	-0.53906
1246.000	7.04005	0.94370	5.03037	-0.56479
1247.000	7.03031	0.98714	5.04018	-0.56874
1248.000	7.01473	0.94572	5.03429	-0.54893
1249.000	7.02447	0.98913	5.01075	-0.52517
1250.000	7.01084	0.93389	5.01467	-0.54102
1251.000	7.08483	0.94953	5.03822	-0.55289
1252.000	7.00499	0.92797	5.02841	-0.51525
1253.000	7.04005	0.95159	5.02448	-0.52318
1254.000	7.01863	0.92795	5.01860	-0.54300
1255.000	6.97967	0.88459	4.97151	-0.50935
1256.000	7.01668	0.94177	4.98328	-0.52123
1257.000	7.01668	0.94177	4.98132	-0.51925
1258.000	7.00499	0.93784	4.99898	-0.54103
1259.000	7.02642	0.94767	4.98917	-0.56482
1260.000	6.97773	0.93198	4.99702	-0.53707
1261.000	6.97578	0.88460	4.99113	-0.50141
1262.000	7.01084	0.94573	4.99505	-0.57473
1263.000	6.96799	0.90041	4.97151	-0.54700
1264.000	7.01278	0.89440	4.98328	-0.54303
1265.000	6.94851	0.89057	5.02252	-0.50336
1266.000	7.03421	0.92199	5.00879	-0.61633
1267.000	7.01084	0.93783	5.01271	-0.56877
1268.000	7.03615	0.95160	5.00094	-0.55094
1269.000	7.01668	0.98322	4.99113	-0.56284
1270.000	6.97578	0.95962	4.97151	-0.50935
1271.000	7.01863	0.99309	5.00683	-0.52716
1272.000	7.04394	0.97922	5.02252	-0.55885
1273.000	7.03615	0.96936	4.99898	-0.54698
1274.000	7.02642	0.90819	5.02056	-0.54498
1275.000	7.03615	0.96147	4.99505	-0.49744
1276.000	7.06731	0.94364	4.99702	-0.52320
1277.000	7.05952	0.96142	5.01271	-0.54102
1278.000	6.97967	0.93592	4.99505	-0.48357
1279.000	7.05952	0.97129	5.00094	-0.47564
1280.000	7.05563	0.99104	4.97151	-0.48755
1281.000	7.04394	0.95158	4.95581	-0.45585
1282.000	7.07899	0.96730	4.97740	-0.49547
1283.000	7.04589	0.96737	4.99702	-0.46177
1284.000	7.07510	0.92389	5.01860	-0.44788
1285.000	7.12766	0.94746	5.02448	-0.44986
1286.000	7.06147	0.92589	5.06176	-0.44191
1287.000	7.08678	0.89820	5.04802	-0.44390
1288.000	7.13739	0.93363	5.05587	-0.42408
1289.000	7.10430	0.93567	5.09118	-0.44189
1290.000	7.06926	0.93377	5.04018	-0.46372
1291.000	7.07704	0.89822	5.08333	-0.41415
1292.000	7.10819	0.88237	5.08726	-0.43198
1293.000	7.06147	0.91404	5.06960	-0.45181
1294.000	7.11209	0.89816	5.07353	-0.49738
1295.000	7.11209	0.90408	5.08529	-0.46567
1296.000	7.10625	0.84882	5.07941	-0.48549
1297.000	7.12766	0.88628	5.11668	-0.58651
1298.000	7.11209	0.94947	5.10883	-0.51915
1299.000	7.14323	0.92375	5.08922	-0.55681
1300.000	7.08678	0.91992	5.06960	-0.50135
1301.000	7.17632	0.91382	5.07549	-0.55286
1302.000	7.16659	0.95922	5.07156	-0.55088
1303.000	7.12961	0.92575	5.09706	-0.55086
1304.000	7.17048	0.94145	5.12648	-0.53498
1305.000	7.14129	0.95730	5.05587	-0.55288
1306.000	7.13350	0.91785	5.09314	-0.50331
1307.000	7.17632	0.89408	5.07353	-0.54494
1308.000	7.13739	0.91587	5.07156	-0.52710
1309.000	7.16853	0.88423	5.10883	-0.50924
1310.000	7.15102	0.90400	5.09510	-0.55284
1311.000	7.14907	0.94347	5.03625	-0.52317
1312.000	7.19578	0.93351	5.04999	-0.47956
1313.000	7.11209	0.96526	5.09314	-0.53699
1314.000	7.18605	0.94932	5.08726	-0.51520
1315.000	7.10430	0.92185	5.10687	-0.47160
1316.000	7.15491	0.93162	5.05391	-0.48749
1317.000	7.15102	0.93360	5.07941	-0.47954
1318.000	7.12182	0.93366	5.07549	-0.45180
1319.000	7.11209	0.93763	5.04999	-0.47560
1320.000	7.15296	0.98096	5.04410	-0.53505
1321.000	7.17048	0.92369	5.03625	-0.49345
1322.000	7.14713	0.94940	5.02252	-0.48553
1323.000	7.09651	0.88240	5.02841	-0.48949
1324.000	7.09262	0.94161	5.06568	-0.50135
1325.000	7.05368	0.87853	5.03037	-0.48354
1326.000	7.04394	0.90421	5.05195	-0.47362
1327.000	7.00110	0.87468	5.03429	-0.48750
1328.000	7.04005	0.90027	5.07156	-0.47757
1329.000	7.00499	0.94969	5.12060	-0.40620
1330.000	7.14907	1.00465	5.24021	-0.37046
1331.000	7.17437	1.01051	5.28334	-0.28526
1332.000	7.36113	1.05546	5.37350	-0.23570
1333.000	7.40002	1.12242	5.50085	-0.12080
1334.000	7.43501	1.22092	5.61053	-0.07722
1335.000	7.56327	1.30729	5.75539	0.15835
1336.000	7.75357	1.43674	5.86105	0.32258
1337.000	7.84090	1.52901	6.00383	0.49660
1338.000	8.04840	1.75852	6.23251	0.79300
1339.000	8.33118	1.94801	6.48832	0.94675
1340.000	8.39311	2.07547	6.69317	1.03327
1341.000	8.63482	2.23522	6.88421	1.28162
1342.000	8.78356	2.33248	7.06731	1.55341
1343.000	8.97269	2.54508	7.26972	1.70061
1344.000	9.14043	2.68698	7.45833	1.75310
1345.000	9.32533	2.82268	7.66621	1.94725
1346.000	9.42733	2.97258	7.88552	2.01315
1347.000	9.51196	3.11859	8.01545	2.10892
1348.000	9.71184	3.37086	8.20146	2.11188
1349.000	9.85775	3.55296	8.28666	2.31979
1350.000	9.97477	3.80146	8.34473	2.52379
1351.000	10.02079	3.92963	8.49756	2.78392
1352.000	10.08788	4.08280	8.63482	2.98304
1353.000	10.25643	4.21502	8.69278	3.11593
1354.000	10.40185	4.39987	8.75266	3.13503
1355.000	10.51274	4.52468	8.84920	3.21261
1356.000	10.63882	4.60831	8.93989	3.28233
1357.000	10.73046	4.68654	8.97847	3.28982
1358.000	10.82394	4.75884	9.07104	3.47496
1359.000	10.90212	4.76536	9.08646	3.48068
1360.000	11.00503	4.79474	9.16548	3.55818
1361.000	11.06026	4.85976	9.18860	3.64402
1362.000	11.13831	4.82358	9.24253	3.61022
1363.000	11.16686	4.92000	9.21942	3.71215
1364.000	11.19920	4.95819	9.20594	3.73771
1365.000	11.22964	4.99253	9.21749	3.74933
1366.000	11.26007	5.04041	9.21942	3.76690
1367.000	11.23344	5.07379	9.20016	3.78079
1368.000	11.20301	5.04722	9.14235	3.76772
1369.000	11.19540	5.04541	9.15584	3.72260
1370.000	11.12309	5.05828	9.11730	3.69561
1371.000	11.08121	5.05513	9.10573	3.70356
1372.000	11.08692	5.06472	9.12501	3.62119
1373.000	11.08692	5.05697	9.11344	3.66435
1374.000	11.07549	5.09010	9.13464	3.62697
1375.000	11.12118	5.03507	9.10381	3.64097
1376.000	11.10024	5.06061	9.12115	3.64667
1377.000	11.15544	5.12937	9.14621	3.64445
1378.000	11.19730	5.07830	9.12308	3.68382
1379.000	11.14402	5.10246	9.15006	3.72461
1380.000	11.18398	5.10951	9.17896	3.79275
1381.000	11.24866	5.12192	9.15970	3.74211
1382.000	11.26387	5.14488	9.16740	3.73616
1383.000	11.24866	5.15096	9.19245	3.74763
1384.000	11.27338	5.15826	9.21749	3.79821
1385.000	11.29810	5.18878	9.15777	3.75973
1386.000	11.28479	5.13483	9.20016	3.73778
1387.000	11.27338	5.16987	9.15199	3.76566
1388.000	11.29049	5.18311	9.19630	3.80430
1389.000	11.27908	5.17751	9.12115	3.70731
1390.000	11.31711	5.17102	9.15777	3.72258
1391.000	11.34942	5.16076	9.17318	3.72633
1392.000	11.33611	5.17842	9.18282	3.72427
1393.000	11.28289	5.16583	9.13079	3.68374
1394.000	11.29810	5.18297	9.15970	3.67561
1395.000	11.30570	5.15381	9.16933	3.64617
1396.000	11.26577	5.23386	9.12886	3.69745
1397.000	11.29049	5.19472	9.15006	3.64246
1398.000	11.27718	5.18335	9.15391	3.67176
1399.000	11.31330	5.21946	9.14428	3.68360
1400.000	11.28479	5.22965	9.10959	3.70938
1401.000	11.26197	5.22426	9.14235	3.65819
1402.000	11.29619	5.21396	9.13657	3.61325
1403.000	11.31711	5.22519	9.11537	3.66824
1404.000	11.25817	5.16820	9.11923	3.64473
1405.000	11.26387	5.20100	9.10959	3.60570
1406.000	11.26577	5.19710	9.13079	3.64266
1407.000	11.22393	5.19204	9.14813	3.63270
1408.000	11.23915	5.20532	9.11730	3.65844
1409.000	11.29049	5.17924	9.13657	3.63868
1410.000	11.23535	5.20925	9.20016	3.62043
1411.000	11.22774	5.16875	9.10573	3.60769
1412.000	11.21252	5.16128	9.14621	3.64837
1413.000	11.20681	5.19235	9.10381	3.62923
1414.000	11.19159	5.17713	9.13657	3.61912
1415.000	11.20491	5.16335	9.14428	3.62687
1416.000	11.21823	5.15343	9.08067	3.63338
1417.000	11.19730	5.15961	9.10188	3.61556
1418.000	11.21823	5.15150	9.07489	3.62953
1419.000	11.21442	5.13801	9.11537	3.62520
1420.000	11.19730	5.16155	9.11537	3.62325
1421.000	11.16686	5.14853	9.07104	3.63544
1422.000	11.18969	5.13264	9.04983	3.59260
1423.000	11.17828	5.13865	9.10381	3.67814
1424.000	11.18208	5.15214	9.10381	3.62923
1425.000	11.20301	5.14015	9.11152	3.60959
1426.000	11.19920	5.14603	9.03247	3.59669
1427.000	11.15164	5.15267	9.04019	3.62401
1428.000	11.18018	5.14055	9.05561	3.68451
1429.000	11.18208	5.12890	9.06525	3.70006
1430.000	11.23725	5.09502	9.11923	3.69559
1431.000	11.22964	5.12226	9.05176	3.64933
1432.000	11.19920	5.08601	9.06525	3.68637
1433.000	11.20301	5.12273	9.07875	3.68427
1434.000	11.22203	5.08755	9.02862	3.63782
1435.000	11.18398	5.10951	9.05561	3.62189
1436.000	11.19350	5.08224	9.03440	3.65146
1437.000	11.17066	5.14072	9.04597	3.62199
1438.000	11.19350	5.13451	9.04212	3.69443
1439.000	11.18969	5.10360	9.04983	3.64935
1440.000	11.23725	5.14342	9.06140	3.63553
1441.000	11.17447	5.12710	9.04983	3.67870
1442.000	11.17066	5.09038	9.09610	3.64496
1443.000	11.18208	5.11342	9.05368	3.61604
1444.000	11.17828	5.07088	9.10573	3.64291
1445.000	11.19350	5.04157	9.08646	3.64898
1446.000	11.20491	5.04912	9.09610	3.67822
1447.000	11.21823	5.08955	9.10573	3.60182
1448.000	11.20111	5.06661	9.09224	3.58631
1449.000	11.17637	5.07479	9.09031	3.61763
1450.000	11.22013	5.05854	9.11923	3.64082
1451.000	11.18589	5.09399	9.09995	3.65080
1452.000	11.14783	5.07529	9.07296	3.60607
1453.000	11.20491	5.05880	9.12886	3.58398
1454.000	11.18589	5.05139	9.10959	3.63309
1455.000	11.27908	5.08461	9.09610	3.65083
1456.000	11.20301	5.09175	9.13464	3.62110
1457.000	11.19159	5.07259	9.07875	3.62362
1458.000	11.21442	5.11091	9.10381	3.62141
1459.000	11.23344	5.07960	9.07682	3.53558
1460.000	11.22964	5.09709	9.09995	3.61753
1461.000	11.24295	5.12589	9.06140	3.59053
1462.000	11.19350	5.10741	9.08067	3.61577
1463.000	11.24105	5.17238	9.08453	3.58834
1464.000	11.20301	5.10918	9.07296	3.59433
1465.000	11.23154	5.12416	9.06525	3.61397
1466.000	11.23344	5.15123	9.03633	3.56533
1467.000	11.24676	5.16647	9.05368	3.61996
1468.000	11.26767	5.13513	9.04597	3.62786
1469.000	11.27908	5.15815	9.03826	3.60054
1470.000	11.26387	5.10617	9.01319	3.61058
1471.000	11.25436	5.10246	9.03826	3.61424
1472.000	11.28289	5.12132	9.04019	3.58878
1473.000	11.27718	5.13497	9.02476	3.62220
1474.000	11.23535	5.11054	9.02669	3.59674
1475.000	11.27148	5.09442	9.06718	3.59047
1476.000	11.28289	5.11744	9.03055	3.61236
1477.000	11.24105	5.08334	9.07489	3.59822
1478.000	11.28669	5.12125	9.04983	3.58086
1479.000	11.31140	5.09952	9.03826	3.53987
1480.000	11.24105	5.07366	9.02283	3.59482
1481.000	11.24676	5.06969	9.04019	3.57117
1482.000	11.29429	5.04175	9.06332	3.56507
1483.000	11.32091	5.09161	9.03247	3.59473
1484.000	11.34752	5.08146	9.05947	3.57293
1485.000	11.37982	5.02283	9.10766	3.56463
1486.000	11.37032	5.01332	9.08646	3.60593
1487.000	11.38172	5.05764	9.07489	3.57082
1488.000	11.41402	5.01643	9.08453	3.62943
1489.000	11.41402	4.97772	8.97655	3.68140
1490.000	11.43491	4.98123	9.01512	3.59490
1491.000	11.28669	4.91409	8.97462	3.62662
1492.000	11.08692	4.91165	8.92253	3.75631
1493.000	10.85827	5.04923	8.79900	3.80847
1494.000	10.65983	5.28331	8.59617	3.83990
1495.000	10.21622	5.44413	8.34280	4.06183
1496.000	9.80593	5.68400	7.99800	4.34750
1497.000	9.53888	5.98750	7.76910	4.37929
1498.000	9.09031	6.07285	7.49332	4.43504
1499.000	8.77776	6.25487	7.24053	4.65722
1500.000	8.40278	6.34850	6.89785	4.83131
1501.000	7.86418	6.58073	6.52931	5.02133
1502.000	7.35529	6.79867	6.11331	5.26082
1503.000	6.96604	7.17795	5.68101	5.32967
1504.000	6.49027	7.26662	5.39701	5.42645
1505.000	5.76909	7.45934	5.01075	5.65163
1506.000	5.41073	7.62736	4.71241	5.85628
1507.000	4.93815	7.83150	4.52777	6.10300
1508.000	4.45900	8.04499	4.19559	6.33510
1509.000	4.05595	8.26305	3.78046	6.57935
1510.000	3.67219	8.51933	3.29992	6.85111
1511.000	3.23489	8.67272	2.69859	7.01542
1512.000	2.74198	8.81439	2.30000	7.07431
1513.000	2.46775	8.95209	1.92685	7.18367
1514.000	1.99399	9.12363	1.50415	7.28310
1515.000	1.55749	9.27303	1.04374	7.41156
1516.000	0.97852	9.35642	0.64448	7.53161
1517.000	0.60692	9.48116	0.33411	7.62383
1518.000	0.30050	9.61504	0.01779	7.70798
1519.000	0.01977	9.70797	-0.32422	7.73326
1520.000	-0.17991	9.86828	-0.63459	7.85593
1521.000	-0.54959	10.02421	-0.93702	7.90026
1522.000	-0.97259	10.01746	-1.23148	7.98340
1523.000	-1.24927	10.05318	-1.67800	8.06373
1524.000	-1.70367	10.04732	-2.04928	8.07180
1525.000	-2.24670	10.02482	-2.35723	8.10328
1526.000	-2.49143	10.04429	-2.78735	8.03630
1527.000	-2.84652	9.98942	-3.06538	8.02654
1528.000	-2.97863	10.01332	-3.34524	7.98542
1529.000	-3.29598	10.03538	-3.59736	7.93658
1530.000	-3.56389	9.99796	-3.81786	7.93463
1531.000	-3.79227	9.92420	-3.90446	7.87541
1532.000	-4.00677	9.82734	-4.09333	7.84830
1533.000	-4.17396	9.81570	-4.19363	7.89989
1534.000	-4.17593	9.77136	-4.28407	7.94568
1535.000	-4.24082	9.75321	-4.43935	7.96352
1536.000	-4.28800	9.73914	-4.59457	7.93266
1537.000	-4.27621	9.72001	-4.72811	7.94867
1538.000	-4.22902	9.73216	-4.80861	7.94581
1539.000	-4.19559	9.65931	-4.77916	8.03947
1540.000	-4.12283	9.67369	-4.79291	8.02764
1541.000	-4.08152	9.70503	-4.80076	8.05282
1542.000	-4.02054	9.65175	-4.76149	8.08437
1543.000	-3.95562	9.60813	-4.72615	8.09838
1544.000	-3.85919	9.62079	-4.72615	8.04396
1545.000	-3.77259	9.61595	-4.68099	8.09113
1546.000	-3.75881	9.55820	-4.62992	8.11892
1547.000	-3.66234	9.54185	-4.53760	8.11023
1548.000	-3.61706	9.58286	-4.57885	8.15642
1549.000	-3.65447	9.53034	-4.53563	8.15496
1550.000	-3.59146	9.54065	-4.54153	8.17432
1551.000	-3.62493	9.50748	-4.54938	8.14509
1552.000	-3.58752	9.51752	-4.61224	8.10940
1553.000	-3.62493	9.48623	-4.65938	8.12830
1554.000	-3.64856	9.43769	-4.67509	8.09897
1555.000	-3.64659	9.47828	-4.68295	8.11443
1556.000	-3.61312	9.47669	-4.75168	8.08643
1557.000	-3.56389	9.42310	-4.66527	8.10103
1558.000	-3.59933	9.49229	-4.73990	8.03409
1559.000	-3.56979	9.48100	-4.72811	8.04005
1560.000	-3.60721	9.45744	-4.66527	8.04077
1561.000	-3.58555	9.46539	-4.69866	8.00540
1562.000	-3.49692	9.46821	-4.61814	8.04908
1563.000	-3.59736	9.41890	-4.57492	8.06317
1564.000	-3.53041	9.46208	-4.58474	8.15052
1565.000	-3.47526	9.44330	-4.58671	8.10191
1566.000	-3.44374	9.45907	-4.56510	8.11187
1567.000	-3.42010	9.46510	-4.59064	8.06494
1568.000	-3.45162	9.43387	-4.58867	8.11161
1569.000	-3.42798	9.47082	-4.56903	8.11960
1570.000	-3.37676	9.44233	-4.54938	8.14314
1571.000	-3.37085	9.43079	-4.52384	8.13565
1572.000	-3.38464	9.38233	-4.53563	8.15107
1573.000	-3.38464	9.42292	-4.50223	8.12423
1574.000	-3.35706	9.44831	-4.56510	8.10215
1575.000	-3.22109	9.44764	-4.51991	8.12015
1576.000	-3.25263	9.45508	-4.59260	8.11934
1577.000	-3.27430	9.43556	-4.56117	8.09831
1578.000	-3.21715	9.43801	-4.57492	8.09233
1579.000	-3.15803	9.47914	-4.55921	8.11583
1580.000	-3.12452	9.45238	-4.52384	8.09872
1581.000	-3.16394	9.44816	-4.51598	8.08909
1582.000	-3.18365	9.46151	-4.53563	8.07915
1583.000	-3.16394	9.48295	-4.50420	8.11449
1584.000	-3.17182	9.48674	-4.52384	8.10456
1585.000	-3.10678	9.46606	-4.53956	8.08105
1586.000	-3.19153	9.45757	-4.52384	8.06762
1587.000	-3.18562	9.45570	-4.55331	8.09257
1588.000	-3.25263	9.45315	-4.57099	8.10209
1589.000	-3.22504	9.44761	-4.58867	8.03191
1590.000	-3.22898	9.43597	-4.55135	8.10814
1591.000	-3.18956	9.44986	-4.50813	8.12222
1592.000	-3.15605	9.44436	-4.54938	8.06928
1593.000	-3.19350	9.44403	-4.51009	8.05416
1594.000	-3.14226	9.47928	-4.55921	8.06529
1595.000	-3.10283	9.50282	-4.55135	8.06537
1596.000	-3.17379	9.42681	-4.54153	8.06742
1597.000	-3.22306	9.45536	-4.51991	8.04628
1598.000	-3.12452	9.46011	-4.52188	8.04820
1599.000	-3.08509	9.47205	-4.53760	8.08691
1600.000	-3.08904	9.44496	-4.48455	8.07194
1601.000	-3.09692	9.44875	-4.48651	8.05636
1602.000	-3.11663	9.50656	-4.53563	8.04027
1603.000	-3.11269	9.46601	-4.55921	8.04390
1604.000	-3.12058	9.47367	-4.56510	8.06133
1605.000	-3.11663	9.42925	-4.55724	8.06142
1606.000	-3.17576	9.44225	-4.53170	8.04420
1607.000	-3.20533	9.41879	-4.54742	8.03625
1608.000	-3.14029	9.44257	-4.50420	8.03867
1609.000	-3.10875	9.39645	-4.52384	8.05595
1610.000	-3.14620	9.45025	-4.52581	8.08121
1611.000	-3.10283	9.45063	-4.52384	8.07928
1612.000	-3.11860	9.45049	-4.52581	8.08704
1613.000	-3.09889	9.42940	-4.53367	8.03057
1614.000	-3.07327	9.46442	-4.51402	8.08911
1615.000	-3.03975	9.47244	-4.55724	8.05947
1616.000	-2.96286	9.47890	-4.53563	8.04610
1617.000	-2.95695	9.47122	-4.53170	8.08309
1618.000	-2.97863	9.42657	-4.52974	8.06755
1619.000	-3.05552	9.47038	-4.47865	8.04867
1620.000	-3.02398	9.45905	-4.54742	8.04403
1621.000	-3.03384	9.45123	-4.51991	8.00738
1622.000	-2.97272	9.44789	-4.51402	8.07939
1623.000	-2.95892	9.46733	-4.55724	8.05559
1624.000	-2.99441	9.48443	-4.52188	8.04625
1625.000	-2.90765	9.43103	-4.49437	8.04655
1626.000	-2.96483	9.41895	-4.53170	8.06948
1627.000	-2.93920	9.45397	-4.55724	8.07503
1628.000	-2.95300	9.48285	-4.51795	8.06380
1629.000	-2.92540	9.44055	-4.51795	8.06380
1630.000	-2.90371	9.49485	-4.55528	8.03616
1631.000	-2.95695	9.44028	-4.49044	8.07187
1632.000	-2.93131	9.47143	-4.53367	8.06946
1633.000	-2.94314	9.45393	-4.56706	8.02826
1634.000	-2.89385	9.44661	-4.52384	8.04429
1635.000	-2.89187	9.45049	-4.52581	8.04621
1636.000	-2.97272	9.42855	-4.54349	8.02463
1637.000	-2.89385	9.49493	-4.48455	8.03499
1638.000	-2.95892	9.40546	-4.52384	8.01901
1639.000	-2.92145	9.46571	-4.53956	8.03439
1640.000	-2.91357	9.45031	-4.51205	8.06386
1641.000	-2.88399	9.47375	-4.52974	8.03450
1642.000	-2.83863	9.49538	-4.49830	8.05040
1643.000	-2.88990	9.43117	-4.50420	8.05617
1644.000	-2.85441	9.45079	-4.55921	8.01668
1645.000	-2.82482	9.47230	-4.47079	8.06042
1646.000	-2.80707	9.49370	-4.50223	7.99396
1647.000	-2.83863	9.47219	-4.53170	8.00726
1648.000	-2.87413	9.46223	-4.48651	8.01164
1649.000	-2.83863	9.43159	-4.51009	8.02305
1650.000	-2.81299	9.48979	-4.53170	8.01309
1651.000	-2.84060	9.50697	-4.51991	7.99766
1652.000	-2.78735	9.47646	-4.50420	8.00756
1653.000	-2.78735	9.49000	-4.50420	8.00756
1654.000	-2.79721	9.50731	-4.50616	7.97252
1655.000	-2.76763	9.53267	-4.50813	8.03668
1656.000	-2.83271	9.47803	-4.53563	7.99749
1657.000	-2.83074	9.49931	-4.48651	8.03303
1658.000	-2.83468	9.51861	-4.45114	8.03147
1659.000	-2.82680	9.48195	-4.49830	7.99011
1660.000	-2.79524	9.49187	-4.51598	8.01910
1661.000	-2.76368	9.49791	-4.51991	7.99377
1662.000	-2.84652	9.52818	-4.51402	7.98994
1663.000	-2.78932	9.52670	-4.51795	7.97240
1664.000	-2.77354	9.48430	-4.51009	8.00166
1665.000	-2.83863	9.45479	-4.55724	7.98169
1666.000	-2.76960	9.52493	-4.56314	7.98163
1667.000	-2.83074	9.47612	-4.52777	7.99563
1668.000	-2.85046	9.51848	-4.59064	7.92881
1669.000	-2.82680	9.49355	-4.59064	7.90352
1670.000	-2.81496	9.52457	-4.61028	8.03167
1671.000	-2.80313	9.50147	-4.60635	7.92280
1672.000	-2.75382	9.53471	-4.59849	7.94623
1673.000	-2.74396	9.54832	-4.62403	7.94595
1674.000	-2.82482	9.53415	-4.59849	7.95984
1675.000	-2.72818	9.51172	-4.59064	7.92297
1676.000	-2.72620	9.50207	-4.58082	7.94837
1677.000	-2.81102	9.48594	-4.65349	7.97479
1678.000	-2.75776	9.51536	-4.62010	7.88958
1679.000	-2.82482	9.46457	-4.62796	7.93618
1680.000	-2.76763	9.55007	-4.62403	7.91482
1681.000	-2.83666	9.51473	-4.64367	7.90488
1682.000	-2.78735	9.52865	-4.67509	7.95510
1683.000	-2.80905	9.54007	-4.67313	7.88315
1684.000	-2.75974	9.49601	-4.63385	7.91277
1685.000	-2.86427	9.50291	-4.66135	7.93386
1686.000	-2.82680	9.51481	-4.62992	7.91281
1687.000	-2.82088	9.48586	-4.65742	7.91056
1688.000	-2.80313	9.49953	-4.63778	7.90689
1689.000	-2.77552	9.46689	-4.66527	7.89102
1690.000	-2.78932	9.47645	-4.67509	7.89091
1691.000	-2.80116	9.45702	-4.64367	7.92239
1692.000	-2.78932	9.48418	-4.63385	7.93028
1693.000	-2.84849	9.48757	-4.67117	7.90263
1694.000	-2.79327	9.48222	-4.64171	7.89712
1695.000	-2.78341	9.49196	-4.67313	7.89677
1696.000	-2.79918	9.48217	-4.67509	7.88702
1697.000	-2.80116	9.48409	-4.69866	7.91788
1698.000	-2.80707	9.48597	-4.67706	7.90256
1699.000	-2.76368	9.52497	-4.62599	7.92453
1700.000	-2.83271	9.45677	-4.67902	7.89865
1701.000	-2.87413	9.45450	-4.60635	7.91696
1702.000	-2.79129	9.52862	-4.60832	7.89943
1703.000	-2.82285	9.47231	-4.62599	7.93620
1704.000	-2.88004	9.47378	-4.66331	7.95329
1705.000	-2.83666	9.46254	-4.57099	7.91541
1706.000	-2.84257	9.41222	-4.59849	7.93845
1707.000	-2.84060	9.44897	-4.67509	7.93565
1708.000	-2.90568	9.48324	-4.62403	7.89731
1709.000	-2.86427	9.47005	-4.67706	7.93369
1710.000	-2.93131	9.43276	-4.68884	7.92577
1711.000	-2.83468	9.45289	-4.62403	7.94206
1712.000	-2.79918	9.47250	-4.65153	7.96120
1713.000	-2.86427	9.42171	-4.64367	7.93600
1714.000	-2.92145	9.44251	-4.62796	7.93812
1715.000	-2.80905	9.47049	-4.58671	7.95414
1716.000	-2.83468	9.45095	-4.58474	7.95027
1717.000	-2.78538	9.46488	-4.62207	7.93819
1718.000	-2.81496	9.46851	-4.57689	7.98731
1719.000	-2.78143	9.46684	-4.53367	7.93138
1720.000	-2.74987	9.47289	-4.58474	7.96972
1721.000	-2.79721	9.47059	-4.53760	7.94300
1722.000	-2.82877	9.43747	-4.57492	7.96205
1723.000	-2.79327	9.46482	-4.56117	7.94858
1724.000	-2.83271	9.46644	-4.56314	7.97190
1725.000	-2.74198	9.41494	-4.54545	7.97210
1726.000	-2.69464	9.52938	-4.49437	8.03294
1727.000	-2.69267	9.51200	-4.56706	8.04770
1728.000	-2.68478	9.50432	-4.51598	8.04049
1729.000	-2.72423	9.55620	-4.47865	8.10116
1730.000	-2.80313	9.52659	-4.52777	8.10451
1731.000	-2.85441	9.59187	-4.55921	8.08667
1732.000	-2.98258	9.57342	-4.62207	8.10346
1733.000	-3.22109	9.55584	-4.65545	8.00977
1734.000	-3.58949	9.50398	-4.85180	7.92586
1735.000	-3.79621	9.34533	-5.08529	7.81615
1736.000	-4.06185	9.22837	-5.21865	7.71533
1737.000	-4.39022	9.14721	-5.42837	7.53762
1738.000	-4.72615	8.99026	-5.66339	7.26209
1739.000	-5.00290	8.78543	-5.70646	7.04328
1740.000	-5.18924	8.62999	-6.04098	6.80513
1741.000	-5.33038	8.33546	-6.21493	6.42630
1742.000	-5.56353	7.99081	-6.41219	6.25592
1743.000	-5.78279	7.64590	-6.50979	6.13946
1744.000	-5.97841	7.48575	-6.62296	5.78425
1745.000	-6.03707	7.26118	-6.74582	5.48345
1746.000	-6.13090	6.96387	-6.82575	5.18684
1747.000	-6.23642	6.67003	-6.81600	4.91254
1748.000	-6.37510	6.31497	-6.90175	4.70574
1749.000	-6.47076	6.13016	-7.04394	4.44928
1750.000	-6.59565	6.03094	-7.22497	4.25326
1751.000	-6.63271	5.79196	-7.31445	4.08558
1752.000	-6.68342	5.46652	-7.48166	3.84061
1753.000	-6.79066	5.26363	-7.61766	3.66270
1754.000	-6.96994	5.11672	-7.73804	3.55563
1755.000	-7.16853	5.11844	-7.85836	3.40932
1756.000	-7.34752	5.03028	-7.93013	3.19466
1757.000	-7.48943	4.88771	-8.16272	3.06129
1758.000	-7.72251	4.66385	-8.25956	2.97219
1759.000	-7.83314	4.53142	-8.31763	2.83038
1760.000	-7.91656	4.40125	-8.39891	2.69235
1761.000	-8.05809	4.17251	-8.56910	2.58515
1762.000	-8.23632	3.91009	-8.64641	2.50807
1763.000	-8.18984	3.79294	-8.72176	2.45457
1764.000	-8.26343	3.66088	-8.81059	2.34605
1765.000	-8.34860	3.61696	-8.88587	2.25922
1766.000	-8.29828	3.46446	-8.92832	2.17654
1767.000	-8.34473	3.33263	-8.96497	2.09194
1768.000	-8.40472	3.19480	-9.03826	2.00910
1769.000	-8.37569	3.04982	-9.08839	1.98331
1770.000	-8.37569	2.96150	-9.04790	1.94429
1771.000	-8.34086	2.92053	-9.11730	1.94980
1772.000	-8.28085	2.88760	-9.12115	1.89876
1773.000	-8.26343	2.81113	-9.10766	1.95574
1774.000	-8.23632	2.77204	-9.10959	1.94003
1775.000	-8.13948	2.79236	-9.10381	1.96165
1776.000	-8.06778	2.76535	-9.08646	1.96174
1777.000	-8.05228	2.79886	-9.05947	1.95404
1778.000	-8.05809	2.81454	-9.13079	2.01447
1779.000	-8.04065	2.77339	-9.09031	2.01273
1780.000	-8.07166	2.84981	-9.09224	1.99899
1781.000	-8.02514	2.82263	-9.09995	1.94597
1782.000	-8.04452	2.86769	-9.05561	1.99723
1783.000	-8.08910	2.82611	-9.09417	1.97543
1784.000	-8.02126	2.84427	-9.11730	1.94195
1785.000	-8.16272	2.78434	-9.17126	1.93970
1786.000	-8.02126	2.80104	-9.13850	1.88886
1787.000	-8.10266	2.77100	-9.15777	1.85737
1788.000	-8.17241	2.74105	-9.17511	1.89455
1789.000	-8.13948	2.68429	-9.15391	1.88682
1790.000	-8.09879	2.74155	-9.15777	1.90249
1791.000	-8.14335	2.72749	-9.16740	1.88478
1792.000	-8.16660	2.69197	-9.15199	1.88879
1793.000	-8.08716	2.66892	-9.15584	1.86326
1794.000	-8.09104	2.68265	-9.15006	1.89076
1795.000	-8.09297	2.70425	-9.14043	1.90651
1796.000	-8.06778	2.66118	-9.12886	1.85752
1797.000	-8.02708	2.69290	-9.15199	1.94765
1798.000	-7.98249	2.75806	-9.14428	1.91238
1799.000	-8.00963	2.78933	-9.10766	1.95770
1800.000	-8.00769	2.73234	-9.10381	1.97734
1801.000	-7.96892	2.74636	-9.11152	1.99496
1802.000	-7.94371	2.77798	-9.09802	1.97737
1803.000	-7.92431	2.78991	-9.09224	1.96171
1804.000	-8.00381	2.79133	-9.11730	1.94391
1805.000	-7.96698	2.81517	-9.13657	1.97520
1806.000	-7.96310	2.72674	-9.11537	1.97335
1807.000	-7.95534	2.80149	-9.12115	1.99294
1808.000	-7.93401	2.81539	-9.07875	1.97356
1809.000	-8.01738	2.86002	-9.08453	1.96568
1810.000	-8.02902	2.81278	-9.08260	1.99904
1811.000	-7.99024	2.83270	-9.03247	1.95615
1812.000	-8.00769	2.78541	-9.13464	1.98502
1813.000	-7.97473	2.76598	-9.06140	1.98739
1814.000	-8.03289	2.81078	-9.11730	1.99689
1815.000	-7.93401	2.84684	-9.12693	1.96937
1816.000	-7.96116	2.79948	-9.09610	1.98327
1817.000	-7.99800	2.84247	-9.10188	1.93026
1818.000	-7.99024	2.82090	-9.10188	1.99109
1819.000	-7.91462	2.86270	-9.09802	1.94206
1820.000	-7.84478	2.82190	-9.10381	1.96165
1821.000	-7.93595	2.81145	-9.12501	2.00861
1822.000	-7.95728	2.76806	-9.12693	1.96348
1823.000	-7.94952	2.82512	-9.07104	1.94809
1824.000	-7.93401	2.82522	-9.08839	1.99116
1825.000	-7.91268	2.76836	-9.12501	1.91248
1826.000	-7.91074	2.87059	-9.10573	1.95575
1827.000	-7.84478	2.85925	-9.14235	1.92808
1828.000	-7.88358	2.88454	-9.13657	1.94381
1829.000	-7.88164	2.88652	-9.14235	1.93004
1830.000	-7.95922	2.87222	-9.15391	1.94960
1831.000	-7.87582	2.88066	-9.15970	1.90052
1832.000	-7.84478	2.91626	-9.09802	1.93224
1833.000	-7.85060	2.85921	-9.11923	1.97922
1834.000	-7.88746	2.91203	-9.13850	1.95753
1835.000	-7.81956	2.91251	-9.14621	1.96534
1836.000	-7.81956	2.87515	-9.14428	1.91630
1837.000	-7.93789	2.89399	-9.09224	1.92443
1838.000	-7.85254	2.92210	-9.07296	1.97163
1839.000	-7.86806	2.90234	-9.12308	1.94977
1840.000	-7.83702	2.92418	-9.11923	1.92624
1841.000	-7.83702	2.93204	-9.09417	1.94208
1842.000	-7.83314	2.91045	-9.06525	1.97167
1843.000	-7.83896	2.87305	-9.12886	1.97328
1844.000	-7.78657	2.90291	-9.09224	1.98133
1845.000	-7.84672	2.85924	-9.08260	1.96765
1846.000	-7.84090	2.91629	-9.09802	1.96168
1847.000	-7.86224	2.97314	-9.14428	1.95554
1848.000	-7.87388	2.92392	-9.09802	1.92243
1849.000	-7.83702	2.91632	-9.13850	1.96145
1850.000	-7.80791	2.95977	-9.13272	1.92421
1851.000	-7.83896	2.92613	-9.11923	1.98707
1852.000	-7.80986	2.95386	-9.10959	1.99889
1853.000	-7.85642	2.92797	-9.09031	1.97349
1854.000	-7.81762	2.98918	-9.13079	1.95954
1855.000	-7.83314	2.99104	-9.07875	1.95982
1856.000	-7.84478	3.02043	-9.12308	1.94584
1857.000	-7.80403	3.04628	-9.12115	1.97921
1858.000	-7.84866	2.94768	-9.09224	1.93031
1859.000	-7.88164	2.98676	-9.11152	1.97730
1860.000	-7.81180	2.99316	-9.12308	1.98312
1861.000	-7.81568	3.01475	-9.11730	1.94980
1862.000	-7.82344	2.99897	-9.09417	1.96955
1863.000	-7.84090	3.01850	-9.06911	1.97557
1864.000	-7.86418	2.95544	-9.13850	1.93399
1865.000	-7.90492	2.99838	-9.13272	1.96737
1866.000	-7.81956	3.03241	-9.08067	1.95000
1867.000	-7.80986	2.97548	-9.12501	1.98900
1868.000	-7.85060	3.00860	-9.09995	1.98129
1869.000	-7.83702	3.04014	-9.12308	1.95762
1870.000	-7.83120	3.03429	-9.10959	1.92433
1871.000	-7.94565	3.01380	-9.13272	1.98111
1872.000	-7.85060	3.00270	-9.13850	1.95557
1873.000	-7.85254	3.02038	-9.11923	1.94783
1874.000	-7.79627	2.98147	-9.14813	1.93590
1875.000	-7.84284	3.03028	-9.12501	1.96938
1876.000	-7.81374	3.02459	-9.11537	1.95570
1877.000	-7.88940	2.99260	-9.12308	2.00078
1878.000	-7.83120	2.96943	-9.09417	1.96170
1879.000	-7.84672	2.96735	-9.15777	1.96331
1880.000	-7.89716	2.97485	-9.10766	1.94985
1881.000	-7.90686	2.97282	-9.12115	1.99490
1882.000	-7.93207	2.94120	-9.09995	1.97933
1883.000	-7.84478	2.98506	-9.10188	1.95773
1884.000	-7.85448	2.99088	-9.13079	1.97131
1885.000	-7.88358	2.97692	-9.11923	1.96352
1886.000	-7.84866	2.98306	-9.14043	1.92024
1887.000	-7.97667	2.92712	-9.17896	1.93573
1888.000	-7.87194	2.97504	-9.13464	1.99287
1889.000	-7.89522	2.96111	-9.12115	1.96744
1890.000	-7.87970	2.94746	-9.11537	1.94000
1891.000	-7.86806	2.97703	-9.15391	1.95352
1892.000	-7.93207	2.96674	-9.18667	1.94746
1893.000	-7.91074	2.96886	-9.17126	1.94166
1894.000	-7.82538	2.90853	-9.17511	1.91025
1895.000	-7.86224	2.93776	-9.13272	1.96149
1896.000	-7.90298	2.91782	-9.15970	1.92406
1897.000	-7.91656	2.92165	-9.11537	1.92626
1898.000	-7.95146	2.94695	-9.14235	1.95947
1899.000	-7.95146	2.92927	-9.13272	1.94775
1900.000	-7.93983	2.89594	-9.15584	1.95351
1901.000	-7.97279	2.93501	-9.08839	1.93033
1902.000	-7.89716	2.96503	-9.18860	1.87290
1903.000	-7.90492	2.87260	-9.15391	1.94960
1904.000	-7.90298	2.94926	-9.11730	1.94588
1905.000	-7.88746	2.93365	-9.15391	1.91429
1906.000	-7.97861	2.94872	-9.11730	1.95961
1907.000	-7.87194	2.93180	-9.14043	1.95556
1908.000	-7.89328	2.91002	-9.16355	1.92012
1909.000	-7.88164	2.91207	-9.14235	1.92808
1910.000	-7.92819	2.91567	-9.13657	1.94185
1911.000	-7.88746	2.98475	-9.16740	1.90833
1912.000	-7.92237	2.93733	-9.20208	1.89049
1913.000	-7.97667	2.89961	-9.15970	1.96330
1914.000	-7.81762	2.88500	-9.16740	1.91029
1915.000	-7.92431	2.89408	-9.19630	1.86109
1916.000	-7.90880	2.88240	-9.16162	1.87893
1917.000	-7.89134	2.94345	-9.19245	1.90623
1918.000	-7.93789	2.88809	-9.21557	1.91199
1919.000	-7.89910	2.92767	-9.16355	1.87892
1920.000	-7.84090	2.95364	-9.15584	1.91231
1921.000	-7.89328	2.92771	-9.20786	1.91203
1922.000	-7.85448	2.93388	-9.13464	1.90654
1923.000	-7.85836	2.95351	-9.17318	1.89653
1924.000	-7.90104	2.93355	-9.10959	1.93807
1925.000	-7.86418	2.89647	-9.14621	1.89078
1926.000	-7.89910	2.90802	-9.18282	1.86705
1927.000	-7.87776	2.89048	-9.16740	1.87498
1928.000	-7.90880	2.91778	-9.16740	1.87105
1929.000	-7.83314	2.92421	-9.16933	1.90047
1930.000	-7.86806	2.93575	-9.17704	1.88670
1931.000	-7.83508	2.96744	-9.15006	1.87899
1932.000	-7.90880	2.90205	-9.15584	1.89858
1933.000	-7.82150	2.93018	-9.12886	1.87518
1934.000	-7.81762	2.90859	-9.19052	1.88662
1935.000	-7.85448	2.93782	-9.17896	1.86118
1936.000	-7.80986	2.96565	-9.14235	1.86530
1937.000	-7.84866	2.91820	-9.18667	1.87880
1938.000	-7.84866	2.95751	-9.15006	1.88684
1939.000	-7.83896	2.95758	-9.17704	1.84942
1940.000	-7.92043	2.90197	-9.17704	1.85923
1941.000	-7.79239	2.92252	-9.16548	1.88479
1942.000	-7.87194	2.92983	-9.14813	1.91432
1943.000	-7.87194	2.90624	-9.17896	1.84549
1944.000	-7.85448	2.89064	-9.15584	1.87504
1945.000	-7.88552	2.94546	-9.18860	1.84151
1946.000	-7.89522	2.89822	-9.16933	1.86516
1947.000	-7.83314	2.92617	-9.16933	1.84750
1948.000	-7.81762	2.92038	-9.14813	1.91824
1949.000	-7.82150	2.90463	-9.13464	1.89477
1950.000	-7.88940	2.88253	-9.12115	1.84186
1951.000	-7.85836	2.88471	-9.15391	1.86524
1952.000	-7.87194	2.93573	-9.17126	1.84945
1953.000	-7.85836	2.91813	-9.13657	1.85944
1954.000	-7.84284	2.92021	-9.13657	1.86336
1955.000	-7.84672	2.90249	-9.17126	1.87299
1956.000	-7.84284	2.96738	-9.15199	1.83582
1957.000	-7.81180	2.96957	-9.17896	1.87295
1958.000	-7.82344	2.96359	-9.13272	1.87908
1959.000	-7.81568	2.90467	-9.17896	1.82390
1960.000	-7.82926	2.95568	-9.15584	1.90447
1961.000	-7.87776	2.96320	-9.15584	1.88288
1962.000	-7.82732	2.93014	-9.19245	1.85915
1963.000	-7.87000	2.91215	-9.15199	1.88487
1964.000	-7.91656	2.87448	-9.15777	1.87110
1965.000	-7.84284	2.90645	-9.18282	1.85920
1966.000	-7.88164	2.91011	-9.17704	1.88081
1967.000	-7.93207	2.86651	-9.19823	1.86108
1968.000	-7.90492	2.90601	-9.15970	1.84166
1969.000	-7.99412	2.84839	-9.24831	1.80197
1970.000	-7.87970	2.89046	-9.22327	1.82368
1971.000	-7.91462	2.91577	-9.22905	1.81580
1972.000	-7.86418	2.87485	-9.22327	1.82564
1973.000	-7.94565	2.83890	-9.24831	1.83728
1974.000	-7.95922	2.87811	-9.21942	1.82370
1975.000	-7.92237	2.85479	-9.22520	1.81974
1976.000	-7.95146	2.83100	-9.23098	1.86875
1977.000	-7.93983	2.85467	-9.26372	1.85485
1978.000	-7.95728	2.83096	-9.23098	1.83933
1979.000	-7.96504	2.83877	-9.23098	1.84521
1980.000	-7.98830	2.79144	-9.22520	1.85113
1981.000	-7.97085	2.91144	-9.19245	1.82972
1982.000	-7.92819	2.80954	-9.20401	1.89832
1983.000	-7.98637	2.81307	-9.24831	1.84709
1984.000	-7.97667	2.84065	-9.22135	1.83349
1985.000	-7.95728	2.78772	-9.24061	1.84909
1986.000	-8.02514	2.82263	-9.20594	1.86889
1987.000	-7.99218	2.80713	-9.25409	1.84313
1988.000	-7.99218	2.80910	-9.23098	1.82952
1989.000	-7.96698	2.80338	-9.24638	1.84906
1990.000	-7.95340	2.80936	-9.23483	1.81969
1991.000	-7.91849	2.79191	-9.20594	1.86889
1992.000	-7.91074	2.79590	-9.25794	1.85488
1993.000	-7.92625	2.80365	-9.27142	1.86854
1994.000	-7.86612	2.84731	-9.23868	1.91775
1995.000	-7.88358	2.85309	-9.21557	1.95318
1996.000	-7.78851	2.91076	-9.21749	1.95513
1997.000	-7.80209	2.92049	-9.22712	2.02373
1998.000	-7.85254	2.91621	-9.23675	2.00994
1999.000	-7.81956	2.88695	-9.23675	1.90991
2000.000	-7.74193	3.03297	-9.32918	1.81136
2001.000	-7.83314	2.99497	-9.36960	1.70525
2002.000	-7.93595	2.95296	-9.47542	1.60670
2003.000	-8.04646	2.92269	-9.59463	1.45324
2004.000	-8.17822	2.71154	-9.64652	1.35109
2005.000	-8.27505	2.58515	-9.68879	1.15687
2006.000	-8.40472	2.61179	-9.71952	1.05679
2007.000	-8.50337	2.42456	-9.76753	0.83320
2008.000	-8.66960	2.33319	-9.75601	0.61367
2009.000	-8.65028	2.19781	-9.77905	0.39406
2010.000	-8.58650	1.98798	-9.75025	0.22156
2011.000	-8.66187	1.76951	-9.81745	0.11958
2012.000	-8.64834	1.51017	-9.76561	0.02745
2013.000	-8.70437	1.30358	-9.75793	-0.15685
2014.000	-8.68119	1.12871	-9.76945	-0.29997
2015.000	-8.60003	0.96967	-9.75025	-0.48820
2016.000	-8.57490	0.80650	-9.74641	-0.57447
2017.000	-8.58457	0.69437	-9.70800	-0.72355
2018.000	-8.55750	0.70032	-9.77137	-0.81162
2019.000	-8.48016	0.59815	-9.75217	-0.88028
2020.000	-8.52464	0.52333	-9.70800	-0.97058
2021.000	-8.51884	0.42497	-9.67534	-0.99420
2022.000	-8.40472	0.36015	-9.62346	-0.97082
2023.000	-8.45502	0.36011	-9.70224	-0.99412
2024.000	-8.49563	0.30891	-9.73297	-0.95482
2025.000	-8.40859	0.28340	-9.71952	-0.91565
2026.000	-8.43761	0.31289	-9.73297	-0.94894
2027.000	-8.45115	0.35224	-9.71568	-0.90782
2028.000	-8.48016	0.28531	-9.71760	-0.86077
2029.000	-8.47049	0.31680	-9.72529	-0.84506
2030.000	-8.50723	0.40137	-9.73297	-0.79407
2031.000	-8.49370	0.37581	-9.76177	-0.77832
2032.000	-8.48016	0.37976	-9.72721	-0.75684
2033.000	-8.53624	0.40134	-9.74833	-0.80384
2034.000	-8.55944	0.35017	-9.79441	-0.78217
2035.000	-8.49756	0.33252	-9.78481	-0.80571
2036.000	-8.57684	0.29901	-9.76753	-0.80575
2037.000	-8.57684	0.24196	-9.82321	-0.81346
2038.000	-8.56910	0.27148	-9.79441	-0.79981
2039.000	-8.58457	0.28523	-9.84816	-0.84083
2040.000	-8.61936	0.18096	-9.81553	-0.83699
2041.000	-8.57104	0.17902	-9.82321	-0.88401
2042.000	-8.57297	0.14557	-9.73681	-0.89208
2043.000	-8.60776	0.07475	-9.79441	-0.94485
2044.000	-8.66187	0.02950	-9.77521	-0.95078
2045.000	-8.59037	0.06491	-9.72529	-0.92348
2046.000	-8.62709	-0.00590	-9.74449	-0.91166
2047.000	-8.59617	-0.02951	-9.76177	-0.94494
2048.000	-8.60969	-0.06098	-9.76945	-0.95864
2049.000	-8.59423	-0.01967	-9.76945	-0.94492
2050.000	-8.65028	-0.13571	-9.77137	-1.02919
2051.000	-8.63868	-0.04327	-9.81745	-1.03101
2052.000	-8.65221	-0.08064	-9.78481	-1.02131
2053.000	-8.62902	-0.03540	-9.78097	-1.00760
2054.000	-8.56910	-0.06098	-9.74449	-1.01163
2055.000	-8.54204	-0.04328	-9.80209	-1.00166
2056.000	-8.59423	-0.06295	-9.80017	-0.98795
2057.000	-8.54784	-0.08460	-9.78865	-1.01934
2058.000	-8.57684	-0.01967	-9.84624	-1.05443
2059.000	-8.61549	-0.09245	-9.79825	-0.98795
2060.000	-8.55170	-0.04328	-9.79249	-1.04088
2061.000	-8.60390	0.00590	-9.80593	-1.03300
2062.000	-8.57877	-0.03147	-9.76369	-1.01942
2063.000	-8.52270	-0.05706	-9.77905	-0.99781
2064.000	-8.58070	-0.05508	-9.80593	-1.05456
2065.000	-8.55557	-0.02361	-9.77713	-1.01349
2066.000	-8.52657	-0.03935	-9.79825	-1.02127
2067.000	-8.53624	-0.02558	-9.79249	-1.03305
2068.000	-8.49370	-0.04526	-9.78289	-1.00956
2069.000	-8.57684	-0.05115	-9.78481	-1.01935
2070.000	-8.54010	-0.06099	-9.79825	-1.00559
2071.000	-8.56330	0.01967	-9.75601	-0.97240
2072.000	-8.56330	-0.07082	-9.78865	-1.01346
2073.000	-8.58843	-0.03147	-9.79825	-0.99579
2074.000	-8.50530	-0.11805	-9.80017	-1.00950
2075.000	-8.56330	-0.03541	-9.83856	-1.01135
2076.000	-8.59810	0.00590	-9.81169	-0.99379
2077.000	-8.52464	-0.02361	-9.81361	-1.02514
2078.000	-8.57297	-0.00984	-9.79249	-0.98405
2079.000	-8.56910	0.00787	-9.75793	-0.97631
2080.000	-8.56137	0.01574	-9.77905	-0.96645
2081.000	-8.56137	-0.04525	-9.80017	-0.93111
2082.000	-8.56330	-0.01967	-9.81169	-0.96244
2083.000	-8.53817	-0.02951	-9.76561	-0.94885
2084.000	-8.61743	-0.07081	-9.80977	-0.98400
2085.000	-8.57490	-0.03148	-9.77521	-0.91942
2086.000	-8.61356	-0.05704	-9.76753	-0.91356
2087.000	-8.53044	-0.02754	-9.79441	-0.93505
2088.000	-8.55364	-0.02361	-9.78673	-0.92135
2089.000	-8.58457	-0.03738	-9.78097	-0.93116
2090.000	-8.56717	-0.07082	-9.73681	-0.93325
2091.000	-8.59810	-0.03737	-9.71952	-0.90389
2092.000	-8.64255	-0.07867	-9.77713	-0.94294
2093.000	-8.60583	-0.02164	-9.73489	-0.92737
2094.000	-8.53624	-0.05509	-9.73105	-0.88622
2095.000	-8.62322	-0.10031	-9.74257	-0.91363
2096.000	-8.56717	-0.04328	-9.75025	-0.94301
2097.000	-8.55364	-0.04918	-9.75601	-0.92143
2098.000	-8.60583	-0.06098	-9.67342	-0.90598
2099.000	-8.58843	-0.04524	-9.72144	-0.87448
2100.000	-8.62516	-0.06294	-9.70416	-0.89217
2101.000	-8.61549	-0.01967	-9.75025	-0.85088
2102.000	-8.57490	-0.05508	-9.72144	-0.88624
2103.000	-8.61549	-0.03541	-9.72336	-0.84115
2104.000	-8.54010	-0.02361	-9.69839	-0.89611
2105.000	-8.60390	0.02164	-9.72529	-0.91760
2106.000	-8.47629	-0.01181	-9.71184	-0.90195
2107.000	-8.53817	0.01574	-9.72144	-0.84311
2108.000	-8.55364	0.00984	-9.71568	-0.91566
2109.000	-8.49950	0.00394	-9.72913	-0.82545
2110.000	-8.60003	-0.01770	-9.72336	-0.87840
2111.000	-8.54204	0.03935	-9.69647	-0.90591
2112.000	-8.54204	-0.01377	-9.70224	-0.85296
2113.000	-8.52077	0.01377	-9.71568	-0.85293
2114.000	-8.53817	0.01377	-9.71184	-0.87450
2115.000	-8.51497	0.05706	-9.69839	-0.86082
2116.000	-8.54204	-0.01967	-9.65997	-0.83542
2117.000	-8.49756	0.01968	-9.66189	-0.86091
2118.000	-8.48790	0.02164	-9.72529	-0.83722
2119.000	-8.52077	0.05902	-9.63307	-0.92569
2120.000	-8.48016	0.07674	-9.66958	-0.84520
2121.000	-8.54397	0.07082	-9.63691	-0.83940
2122.000	-8.46856	0.02952	-9.67342	-0.88049
2123.000	-8.50917	0.08067	-9.65997	-0.86288
2124.000	-8.44921	0.02558	-9.69839	-0.89218
2125.000	-8.52850	0.10034	-9.72721	-0.92151
2126.000	-8.53817	0.06099	-9.69263	-0.92553
2127.000	-8.48403	0.08461	-9.67726	-0.87067
2128.000	-8.50143	0.09051	-9.70032	-0.92747
2129.000	-8.50143	0.10428	-9.72913	-0.85094
2130.000	-8.46469	0.08068	-9.74641	-0.90186
2131.000	-8.47629	0.03542	-9.70416	-0.91766
2132.000	-8.43954	0.09052	-9.75025	-0.89989
2133.000	-8.45695	0.06691	-9.72721	-0.89995
2134.000	-8.39891	0.14958	-9.71760	-0.90194
2135.000	-8.38730	0.18107	-9.72336	-0.92152
2136.000	-8.40278	0.16729	-9.75601	-0.91163
2137.000	-8.40859	0.20468	-9.79249	-1.00169
2138.000	-8.36602	0.14959	-9.77137	-0.97823
2139.000	-8.45115	0.18104	-9.80785	-0.95853
2140.000	-8.40472	0.16532	-9.81937	-0.95457
2141.000	-8.42987	0.14760	-9.80593	-0.98401
2142.000	-8.40859	0.13973	-9.79057	-0.98602
2143.000	-8.37763	0.17714	-9.78481	-1.00563
2144.000	-8.45695	0.14168	-9.80017	-0.98403
2145.000	-8.43761	0.17514	-9.81745	-0.98202
2146.000	-8.42987	0.15350	-9.82705	-0.97415
2147.000	-8.46662	0.19677	-9.83472	-1.00352
2148.000	-8.45115	0.18498	-9.74449	-0.97831
2149.000	-8.48790	0.20857	-9.81361	-0.96243
2150.000	-8.44921	0.16136	-9.81553	-0.95067
2151.000	-8.41246	0.19287	-9.80401	-1.01929
2152.000	-8.42020	0.16728	-9.82513	-1.01531
2153.000	-8.37763	0.18304	-9.79633	-0.97816
2154.000	-8.39311	0.13974	-9.76561	-0.95865
2155.000	-8.44148	0.15546	-9.78673	-0.97819
2156.000	-8.47436	0.14168	-9.81361	-0.95851
2157.000	-8.45888	0.15939	-9.80785	-0.96441
2158.000	-8.44534	0.18498	-9.77329	-0.91355
2159.000	-8.44341	0.20466	-9.80209	-0.98402
2160.000	-8.47629	0.24006	-9.78481	-0.92135
2161.000	-8.55557	0.21050	-9.77713	-0.95470
2162.000	-8.63482	0.19079	-9.83664	-0.96824
2163.000	-8.64061	0.17702	-9.87502	-0.95441
2164.000	-8.59423	0.20458	-9.85391	-0.96623
2165.000	-8.56137	0.23017	-9.87310	-1.03475
2166.000	-8.54977	0.24395	-9.79249	-0.97425
2167.000	-8.54784	0.21641	-9.51773	-0.94366
2168.000	-8.47049	0.17906	-9.39462	-0.93615
2169.000	-8.37763	0.13187	-9.28490	-0.89719
2170.000	-8.24213	0.12601	-8.95726	-0.90980
2171.000	-8.03871	0.13395	-8.57297	-0.92451
2172.000	-7.77104	0.18726	-8.32151	-0.78931
2173.000	-7.57492	0.26426	-7.93207	-0.68173
2174.000	-7.35141	0.27228	-7.52830	-0.61336
2175.000	-7.04784	0.30011	-7.06342	-0.46791
2176.000	-6.84719	0.23703	-6.44538	-0.27280
2177.000	-6.55663	0.36366	-5.95494	-0.16819
2178.000	-6.27745	0.44493	-5.51848	-0.11683
2179.000	-5.99797	0.53617	-5.07941	-0.02378
2180.000	-5.56940	0.67318	-4.61814	0.00000
2181.000	-5.25786	0.79040	-4.10119	0.11311
2182.000	-4.99702	0.84422	-3.66234	0.29582
2183.000	-4.48651	0.87657	-3.25657	0.30190
2184.000	-4.23099	0.85901	-2.84454	0.31791
2185.000	-3.68794	0.98462	-2.33947	0.25841
2186.000	-3.38267	1.03061	-1.98017	0.35390
2187.000	-2.72423	1.12460	-1.60096	0.45937
2188.000	-2.12825	1.23837	-1.50020	0.43752
2189.000	-1.45081	1.26666	-1.04967	0.73792
2190.000	-1.12279	1.38610	-0.42702	0.72807
2191.000	-0.71959	1.50753	-0.09490	0.74202
2192.000	-0.53971	1.43402	0.30643	0.74201
2193.000	-0.28864	1.44600	0.76901	0.73400
2194.000	-0.05140	1.53945	1.14651	0.76176
2195.000	0.13246	1.55933	1.41722	0.74577
2196.000	0.62668	1.53141	1.89920	0.60443
2197.000	1.23346	1.39598	2.23683	0.57847
2198.000	1.81428	1.39561	2.51905	0.35576
2199.000	2.35329	1.43685	2.82285	0.49873
2200.000	2.58614	1.53193	3.22701	0.56806
2201.000	2.88399	1.62883	3.57570	0.53807
2202.000	3.34918	1.62811	3.73322	0.58562
2203.000	3.81786	1.54992	4.06972	0.57149
2204.000	4.21526	1.58882	4.38432	0.46217
2205.000	4.59849	1.70689	4.74186	0.36678
2206.000	4.94796	1.73968	4.93619	0.44595
2207.000	5.32842	1.80989	5.21473	0.51312
2208.000	5.54786	1.76373	5.48126	0.50101
2209.000	5.75735	1.66816	5.76909	0.45326
2210.000	5.95690	1.63198	5.91583	0.50261
2211.000	6.07031	1.64548	6.07813	0.48664
2212.000	6.21688	1.65491	6.14849	0.43119
2213.000	6.48052	1.71331	6.28135	0.41922
2214.000	6.71852	1.63747	6.39853	0.44878
2215.000	7.00889	1.62464	6.53126	0.40716
2216.000	7.23859	1.63368	6.70097	0.39121
2217.000	7.41751	1.58572	6.82575	0.41876
2218.000	7.57881	1.58119	6.87447	0.40095
2219.000	7.69728	1.59257	6.91149	0.36734
2220.000	7.86030	1.62740	6.92318	0.33178
2221.000	7.95534	1.67033	6.88226	0.36341
2222.000	8.07553	1.72888	6.80041	0.36150
2223.000	8.06003	1.71320	6.80236	0.37138
2224.000	8.07359	1.73676	6.72827	0.32204
2225.000	8.03289	1.74481	6.66782	0.34777
2226.000	8.03289	1.76252	6.55467	0.32216
2227.000	8.01157	1.72325	6.53711	0.24904
2228.000	7.96892	1.75492	6.49027	0.24115
2229.000	7.91462	1.73153	6.42000	0.24910
2230.000	7.97085	1.80019	6.39657	0.27283
2231.000	7.92043	1.71379	6.36143	0.29064
2232.000	7.87776	1.69428	6.32042	0.25310
2233.000	7.88552	1.75725	6.31065	0.27881
2234.000	7.90686	1.76503	6.32042	0.28869
2235.000	7.90880	1.74927	6.32628	0.24914
2236.000	7.87582	1.70413	6.31260	0.23926
2237.000	7.90686	1.67841	6.38681	0.31040
2238.000	7.94952	1.73532	6.33604	0.22541
2239.000	7.99024	1.73318	6.36729	0.32030
2240.000	8.01351	1.69568	6.43172	0.32026
2241.000	8.05421	1.71126	6.42781	0.29061
2242.000	8.08135	1.70721	6.45905	0.29257
2243.000	8.09879	1.65990	6.44343	0.34397
2244.000	8.10848	1.74251	6.43172	0.27281
2245.000	8.10654	1.72284	6.42976	0.32026
2246.000	8.12204	1.68933	6.45514	0.35978
2247.000	8.21502	1.74598	6.39657	0.30249
2248.000	8.18016	1.70285	6.41024	0.29062
2249.000	8.15304	1.73051	6.39267	0.30051
2250.000	8.11429	1.73658	6.33604	0.31636
2251.000	8.08135	1.73279	6.35166	0.26890
2252.000	8.06972	1.78204	6.27354	0.28872
2253.000	8.05034	1.74080	6.23251	0.32631
2254.000	8.03289	1.72513	6.20125	0.29469
2255.000	8.04452	1.77034	6.21493	0.27095
2256.000	8.01157	1.75868	6.19539	0.28283
2257.000	8.02514	1.76255	6.18562	0.29470
2258.000	7.98637	1.74501	6.15826	0.25515
2259.000	8.02708	1.79403	6.16803	0.27691
2260.000	7.96698	1.74903	6.19539	0.28480
2261.000	7.94759	1.75698	6.10940	0.25716
2262.000	7.96116	1.72346	6.13872	0.31846
2263.000	7.96892	1.74508	6.16217	0.27691
2264.000	7.94565	1.69990	6.16608	0.33822
2265.000	7.90880	1.70990	6.14849	0.29274
2266.000	7.94565	1.69203	6.16999	0.29866
2267.000	7.88552	1.66471	6.13481	0.22747
2268.000	7.91268	1.65476	6.14849	0.26901
2269.000	7.94371	1.65069	6.15045	0.24922
2270.000	7.92043	1.67048	6.13286	0.23934
2271.000	7.93595	1.68026	6.14654	0.24527
2272.000	7.90298	1.73355	6.08399	0.21958
2273.000	7.91268	1.68232	6.08204	0.21761
2274.000	7.90880	1.69612	6.08986	0.25519
2275.000	7.93595	1.71175	6.07813	0.23937
2276.000	7.90492	1.65676	6.10158	0.26112
2277.000	7.93789	1.66056	6.12699	0.26308
2278.000	7.89328	1.68831	6.08790	0.27299
2279.000	7.91462	1.66853	6.07226	0.25124
2280.000	7.92625	1.60745	6.06444	0.27894
2281.000	7.95922	1.66244	6.07031	0.34224
2282.000	7.93401	1.60939	6.10158	0.26705
2283.000	7.95728	1.63095	6.05271	0.24729
2284.000	7.95922	1.60535	6.09377	0.27892
2285.000	7.91849	1.57204	6.08399	0.27893
2286.000	7.97279	1.61514	6.05467	0.21168
2287.000	7.93207	1.63893	6.09572	0.25123
2288.000	7.95340	1.56600	6.07031	0.24333
2289.000	7.93595	1.57788	6.09181	0.25321
2290.000	7.92043	1.60747	6.09767	0.25716
2291.000	7.94759	1.63296	6.05858	0.28290
2292.000	7.92625	1.60745	6.08204	0.22552
2293.000	7.90880	1.58783	6.04294	0.24730
2294.000	7.91074	1.60554	6.05858	0.21959
2295.000	7.90104	1.62921	6.06444	0.21366
2296.000	7.87582	1.60765	6.05858	0.19783
2297.000	7.85642	1.60772	6.09181	0.24530
2298.000	7.89328	1.60167	6.09377	0.23343
2299.000	7.86224	1.62739	6.07226	0.24926
2300.000	7.87194	1.60175	6.07031	0.21563
2301.000	7.86030	1.66284	6.08986	0.28684
2302.000	7.80209	1.60793	6.10549	0.24727
2303.000	7.83702	1.56447	6.04685	0.27103
2304.000	7.81180	1.60592	6.09377	0.24925
2305.000	7.80791	1.55276	6.10549	0.26507
2306.000	7.82150	1.58422	6.08790	0.24530
2307.000	7.85254	1.63924	6.03903	0.26115
2308.000	7.84284	1.59990	6.06444	0.30070
2309.000	7.82150	1.57241	6.08204	0.25915
2310.000	7.83120	1.61963	6.03121	0.24928
2311.000	7.81762	1.59802	6.05271	0.28686
2312.000	7.83508	1.56842	6.06249	0.21563
2313.000	7.82732	1.59799	6.11136	0.29078
2314.000	7.81762	1.56257	6.05076	0.25718
2315.000	7.81374	1.57440	6.03316	0.24532
2316.000	7.78075	1.55089	6.06835	0.25718
2317.000	7.77298	1.53319	6.10158	0.26705
2318.000	7.78657	1.52527	6.01948	0.19389
2319.000	7.82150	1.58816	6.07226	0.23541
2320.000	7.79239	1.52524	6.06444	0.30663
2321.000	7.78463	1.54891	6.04880	0.22553
2322.000	7.82538	1.56648	6.05076	0.21366
2323.000	7.80403	1.56065	6.04098	0.27499
2324.000	7.76328	1.55490	6.01948	0.27896
2325.000	7.76910	1.55094	6.04294	0.25917
2326.000	7.78269	1.59028	6.05271	0.27499
2327.000	7.82538	1.55467	6.02143	0.24137
2328.000	7.78657	1.55875	6.04294	0.28093
2329.000	7.79239	1.54888	6.03707	0.26115
2330.000	7.74581	1.52935	6.00970	0.23148
2331.000	7.76134	1.54703	6.04685	0.25521
2332.000	7.72834	1.53533	6.03512	0.22356
2333.000	7.76134	1.54900	6.06640	0.29081
2334.000	7.76716	1.56079	6.00970	0.25918
2335.000	7.78075	1.57650	6.02925	0.26906
2336.000	7.77686	1.55091	6.02534	0.25126
2337.000	7.76134	1.56672	5.99015	0.23347
2338.000	7.79239	1.57645	6.03121	0.25324
2339.000	7.75163	1.62388	6.00774	0.23346
2340.000	7.73999	1.59044	6.06053	0.25916
2341.000	7.76716	1.63564	6.04294	0.21960
2342.000	7.74775	1.53132	6.03121	0.31259
2343.000	7.74969	1.60025	6.05662	0.26114
2344.000	7.73804	1.53135	6.04098	0.28093
2345.000	7.74775	1.58253	6.01361	0.22159
2346.000	7.73804	1.55696	6.02534	0.29281
2347.000	7.76716	1.59231	6.02143	0.24335
2348.000	7.75551	1.61008	6.02143	0.30666
2349.000	7.70893	1.54919	6.06640	0.33631
2350.000	7.73416	1.60031	6.02534	0.27302
2351.000	7.76134	1.56869	6.02143	0.28687
2352.000	7.72834	1.62594	5.99406	0.26908
2353.000	7.73416	1.60622	6.03707	0.31456
2354.000	7.71863	1.62598	6.01361	0.29084
2355.000	7.72446	1.55898	6.02143	0.29479
2356.000	7.77298	1.58638	6.03121	0.32446
2357.000	7.69922	1.58862	5.99601	0.33041
2358.000	7.74193	1.56089	5.99406	0.34427
2359.000	7.72834	1.60821	6.02730	0.29083
2360.000	7.72446	1.61217	6.00774	0.29084
2361.000	7.69728	1.56105	5.98232	0.31262
2362.000	7.73222	1.57668	6.00774	0.36602
2363.000	7.70310	1.55906	6.00579	0.35811
2364.000	7.68369	1.56110	6.01361	0.37195
2365.000	7.67203	1.56311	5.98037	0.33636
2366.000	7.70893	1.59450	5.99015	0.35416
2367.000	7.71087	1.56691	6.02143	0.34623
2368.000	7.65650	1.57302	6.01165	0.33832
2369.000	7.69922	1.60832	6.00188	0.31260
2370.000	7.67398	1.60645	6.04489	0.37984
2371.000	7.66815	1.59662	5.99406	0.37196
2372.000	7.69339	1.58274	5.99797	0.40955
2373.000	7.65262	1.58683	6.01557	0.38580
2374.000	7.67009	1.62813	5.97841	0.39572
2375.000	7.65650	1.57696	5.97450	0.34032
2376.000	7.62737	1.53372	5.97841	0.38187
2377.000	7.73028	1.59245	6.02925	0.37788
2378.000	7.67786	1.65371	5.99797	0.35613
2379.000	7.66621	1.64588	6.01557	0.41547
2380.000	7.70504	1.64770	5.98232	0.40759
2381.000	7.66815	1.62223	5.98819	0.38977
2382.000	7.63708	1.59280	6.00188	0.35613
2383.000	7.66621	1.63406	6.04098	0.31258
2384.000	7.66233	1.63604	6.00188	0.34030
2385.000	7.63125	1.63616	6.01361	0.35415
2386.000	7.66427	1.60452	5.98037	0.32449
2387.000	7.65067	1.61245	6.01361	0.30271
2388.000	7.62543	1.59875	6.01361	0.33436
2389.000	7.64291	1.62036	6.00383	0.32645
2390.000	7.65456	1.64592	5.99015	0.33042
2391.000	7.62543	1.61845	5.95494	0.37595
2392.000	7.61960	1.61059	6.00970	0.34821
2393.000	7.62543	1.61057	6.00579	0.34426
2394.000	7.61766	1.65592	5.96277	0.29482
2395.000	7.63708	1.61053	5.96472	0.38781
2396.000	7.64096	1.59475	5.96863	0.32054
2397.000	7.62737	1.64012	5.96081	0.32648
2398.000	7.64096	1.66568	5.97450	0.34823
2399.000	7.61960	1.59483	5.98232	0.36208
2400.000	7.63708	1.60856	5.99601	0.32052
2401.000	7.59241	1.58508	5.96472	0.33439
2402.000	7.61183	1.61062	5.96472	0.35022
2403.000	7.63708	1.58886	5.96863	0.35022
2404.000	7.64291	1.60657	5.99015	0.30074
2405.000	7.63514	1.59280	5.99015	0.34625
2406.000	7.57881	1.60681	5.97646	0.31856
2407.000	7.60406	1.60080	5.98037	0.33438
2408.000	7.60406	1.63233	6.00774	0.30073
2409.000	7.65844	1.63606	5.99406	0.32646
2410.000	7.64291	1.59474	5.99406	0.36009
2411.000	7.62931	1.64602	5.97059	0.32845
2412.000	7.65067	1.62427	5.97646	0.30075
2413.000	7.60018	1.61461	5.92561	0.30275
2414.000	7.60600	1.61656	5.98232	0.38780
2415.000	7.60795	1.60276	5.96668	0.32845
2416.000	7.62543	1.65589	5.97255	0.34230
2417.000	7.62349	1.62043	5.97059	0.34428
2418.000	7.62349	1.60270	5.97450	0.33636
2419.000	7.62543	1.64210	5.98232	0.30272
2420.000	7.63902	1.62825	5.97255	0.33043
2421.000	7.63514	1.59083	5.93734	0.30868
2422.000	7.61960	1.61848	5.97450	0.29877
2423.000	7.58464	1.62255	5.96277	0.33043
2424.000	7.64485	1.62626	5.93539	0.33045
2425.000	7.61766	1.61257	5.96081	0.28295
2426.000	7.61766	1.64607	5.91192	0.28495
2427.000	7.61183	1.60274	5.94125	0.30472
2428.000	7.60406	1.59883	5.94908	0.29087
2429.000	7.61572	1.59879	5.97646	0.30471
2430.000	7.62737	1.56919	5.95690	0.31659
2431.000	7.55744	1.59703	5.95886	0.29680
2432.000	7.54967	1.57735	5.97255	0.23941
2433.000	7.60212	1.59096	5.97841	0.32647
2434.000	7.61766	1.54361	5.98623	0.25326
2435.000	7.64485	1.59277	5.96277	0.23546
2436.000	7.57104	1.55363	5.95690	0.33835
2437.000	7.60600	1.59094	5.96081	0.30076
2438.000	7.61377	1.57712	5.97059	0.25326
2439.000	7.60018	1.61264	5.96081	0.29482
2440.000	7.64291	1.57307	5.97059	0.32845
2441.000	7.61377	1.57712	5.97450	0.29481
2442.000	7.59241	1.56537	6.01948	0.30864
2443.000	7.59824	1.57324	5.95103	0.26317
2444.000	7.59629	1.59689	5.98428	0.29283
2445.000	7.62154	1.53768	5.94908	0.30076
2446.000	7.60795	1.57320	5.95299	0.26515
2447.000	7.61572	1.60273	5.95299	0.28493
2448.000	7.58658	1.57525	5.96081	0.27306
2449.000	7.59629	1.55748	5.97059	0.23941
2450.000	7.60600	1.63823	5.97059	0.25722
2451.000	7.63514	1.63812	5.95690	0.22953
2452.000	7.60018	1.64613	5.96472	0.26316
2453.000	7.55744	1.59506	5.97450	0.28294
2454.000	7.57881	1.63636	5.95690	0.24931
2455.000	7.54384	1.59511	5.97841	0.25326
2456.000	7.56521	1.57336	5.95299	0.25525
2457.000	7.57881	1.55360	5.94125	0.26317
2458.000	7.55161	1.63647	5.94321	0.25921
2459.000	7.54384	1.60694	5.96472	0.29482
2460.000	7.56521	1.58912	5.96081	0.23348
2461.000	7.57104	1.59895	5.93539	0.23152
2462.000	7.54578	1.58328	5.95103	0.21370
2463.000	7.55744	1.57141	5.97646	0.27701
2464.000	7.57298	1.60486	5.93734	0.22162
2465.000	7.58270	1.64226	5.96668	0.22359
2466.000	7.54190	1.58132	5.91583	0.25725
2467.000	7.56133	1.56155	5.95494	0.23744
2468.000	7.56133	1.61278	5.93147	0.24339
2469.000	7.53218	1.60698	5.96863	0.30471
2470.000	7.53413	1.60894	5.95494	0.24931
2471.000	7.58270	1.65014	5.96472	0.26514
2472.000	7.52830	1.62473	5.92952	0.29879
2473.000	7.55550	1.62069	5.93147	0.29088
2474.000	7.55161	1.64632	5.93734	0.28098
2475.000	7.51275	1.65238	5.88649	0.35027
2476.000	7.59241	1.67572	5.94321	0.28889
2477.000	7.57104	1.65216	5.93734	0.33836
2478.000	7.62154	1.61847	5.94712	0.30868
2479.000	7.57104	1.63836	5.92952	0.34628
2480.000	7.54967	1.68377	5.93734	0.31264
2481.000	7.53801	1.67396	5.90605	0.28100
2482.000	7.59047	1.70134	5.94125	0.30472
2483.000	7.55938	1.69949	5.92365	0.32848
2484.000	7.62543	1.72484	5.87866	0.25331
2485.000	7.57104	1.66792	5.89431	0.28100
2486.000	7.58464	1.70333	5.90213	0.28100
2487.000	7.58270	1.67773	5.89822	0.29090
2488.000	7.58464	1.67772	5.93539	0.27703
2489.000	7.55550	1.67980	5.90409	0.27111
2490.000	7.60212	1.70129	5.91778	0.30276
2491.000	7.58464	1.69348	5.92561	0.28692
2492.000	7.62737	1.71498	5.91583	0.32651
2493.000	7.61960	1.73669	5.90409	0.28694
2494.000	7.64291	1.73856	5.93147	0.23943
2495.000	7.61377	1.73277	5.93539	0.26317
2496.000	7.58075	1.74078	5.90213	0.30673
2497.000	7.60989	1.73870	5.90800	0.34036
2498.000	7.61572	1.78595	5.93734	0.28098
2499.000	7.65844	1.79759	5.90213	0.28892
2500.000	7.65262	1.75034	5.89431	0.27705
2501.000	7.60018	1.74070	5.89235	0.24539
2502.000	7.59629	1.76042	5.91387	0.30078
2503.000	7.63514	1.81542	5.90800	0.27308
2504.000	7.60018	1.79784	5.90996	0.26517
2505.000	7.58658	1.79986	5.85910	0.27311
2506.000	7.62349	1.79971	5.86301	0.30477
2507.000	7.59047	1.80182	5.84932	0.29488
2508.000	7.58464	1.77229	5.76126	0.20981
2509.000	7.60018	1.76829	5.80040	0.23553
2510.000	7.54384	1.70546	5.74952	0.17815
2511.000	7.42723	1.69212	5.77496	0.20783
2512.000	7.47777	1.74317	5.76713	0.29888
2513.000	7.52635	1.69174	5.86692	0.42944
2514.000	7.72834	1.81896	6.01557	0.43526
2515.000	7.91462	1.86539	6.15435	0.47866
2516.000	8.00381	1.89057	6.30870	0.43502
2517.000	8.18209	1.98218	6.54882	0.63442
2518.000	8.43180	2.02416	6.81405	0.69333
2519.000	8.65994	2.17812	7.10625	0.97316
2520.000	8.96497	2.20183	7.42918	1.09079
2521.000	9.14043	2.15761	7.68369	1.28131
2522.000	9.38692	2.31876	8.01351	1.36102
2523.000	9.65997	2.52638	8.30408	1.42496
2524.000	9.84240	2.70105	8.60969	1.54177
2525.000	10.08213	2.93355	8.77197	1.75327
2526.000	10.27940	3.12499	8.96111	1.92316
2527.000	10.41524	3.19972	9.01126	2.03672
2528.000	10.55669	3.32692	9.11152	2.26370
2529.000	10.69610	3.59809	9.14235	2.52036
2530.000	10.79915	3.81288	9.13079	2.70862
2531.000	10.90975	4.03896	9.11923	2.90074
2532.000	10.95358	4.25597	9.06718	3.17543
2533.000	11.02979	4.43544	9.01126	3.29540
2534.000	11.08692	4.57039	9.00162	3.39536
2535.000	11.10024	4.76993	8.96497	3.46227
2536.000	11.14783	4.85250	8.89937	3.50598
2537.000	11.22964	4.95961	8.92253	3.59973
2538.000	11.25436	5.02696	8.93989	3.57020
2539.000	11.26958	5.04219	8.93796	3.65634
2540.000	11.36272	5.04442	8.98233	3.62067
2541.000	11.38742	5.05173	9.04019	3.72184
2542.000	11.42921	5.04906	9.07489	3.70583
2543.000	11.46340	5.00201	9.09224	3.68022
2544.000	11.47669	4.96308	9.11344	3.59392
2545.000	11.50707	4.92385	9.22327	3.59477
2546.000	11.50707	4.91611	9.20208	3.51673
2547.000	11.47289	4.88380	9.21749	3.53614
2548.000	11.50896	4.83092	9.21557	3.42660
2549.000	11.45580	4.83376	9.27912	3.43576
2550.000	11.45580	4.79504	9.26372	3.42613
2551.000	11.46340	4.81427	9.24446	3.39501
2552.000	11.46720	4.85293	9.20979	3.38751
2553.000	11.46530	4.84134	9.22905	3.39516
2554.000	11.46150	4.85302	9.14813	3.39006
2555.000	11.42921	4.85551	9.23290	3.44599
2556.000	11.43681	4.92894	9.16933	3.45835
2557.000	11.46909	4.91870	9.21171	3.50685
2558.000	11.44061	4.97339	9.20016	3.51675
2559.000	11.46909	4.98837	9.20979	3.58121
2560.000	11.52984	5.04340	9.23483	3.56727
2561.000	11.48049	5.02106	9.23675	3.59659
2562.000	11.50896	5.06891	9.21557	3.64570
2563.000	11.52035	5.07451	9.22905	3.64556
2564.000	11.56211	5.08536	9.24061	3.66500
2565.000	11.55641	5.09127	9.21942	3.65348
2566.000	11.59246	5.13702	9.21364	3.67310
2567.000	11.54882	5.13008	9.24253	3.71191
2568.000	11.55072	5.15711	9.24831	3.69816
2569.000	11.58298	5.14492	9.20016	3.68693
2570.000	11.57349	5.13156	9.22520	3.70622
2571.000	11.53554	5.16512	9.23868	3.67284
2572.000	11.51086	5.18104	9.20594	3.71620
2573.000	11.51086	5.13464	9.19823	3.69868
2574.000	11.53554	5.14966	9.22520	3.73751
2575.000	11.54123	5.13989	9.19630	3.71239
2576.000	11.49188	5.12918	9.18089	3.68126
2577.000	11.49947	5.15998	9.18474	3.70469
2578.000	11.50137	5.12321	9.17126	3.65007
2579.000	11.50707	5.11343	9.16162	3.66386
2580.000	11.49757	5.10780	9.16162	3.66581
2581.000	11.49188	5.06922	9.17126	3.64811
2582.000	11.48239	5.09454	9.16548	3.65991
2583.000	11.49757	5.08653	9.15777	3.59934
2584.000	11.48618	5.11381	9.13464	3.65827
2585.000	11.50517	5.08059	9.12501	3.67793
2586.000	11.49188	5.09823	9.12308	3.60752
2587.000	11.52225	5.10542	9.15777	3.64825
2588.000	11.50137	5.06518	9.14235	3.62493
2589.000	11.50707	5.09796	9.18282	3.66560
2590.000	11.48428	5.05581	9.15391	3.57199
2591.000	11.51086	5.04567	9.11730	3.67801
2592.000	11.51276	5.12107	9.18282	3.64212
2593.000	11.53364	5.10328	9.17704	3.56980
2594.000	11.47859	5.06172	9.10381	3.56467
2595.000	11.50517	5.07285	9.16740	3.65402
2596.000	11.47859	5.04818	9.12886	3.65441
2597.000	11.50707	5.04767	9.14621	3.62880
2598.000	11.52605	5.09375	9.13464	3.59958
2599.000	11.49757	5.03430	9.12693	3.57031
2600.000	11.52035	5.07645	9.14813	3.59748
2601.000	11.50707	5.04574	9.14813	3.57401
2602.000	11.52795	5.05310	9.15777	3.61891
2603.000	11.52795	5.07244	9.09995	3.64297
2604.000	11.50327	5.06708	9.15584	3.63849
2605.000	11.51466	5.06108	9.09995	3.62732
2606.000	11.50707	5.05541	9.13079	3.60548
2607.000	11.51086	5.05921	9.09610	3.59996
2608.000	11.50137	5.08452	9.15584	3.55828
2609.000	11.51656	5.04944	9.15006	3.59746
2610.000	11.51466	5.07461	9.05754	3.57491
2611.000	11.55452	5.05456	9.12693	3.62313
2612.000	11.48808	5.02479	9.12115	3.63297
2613.000	11.50707	5.05541	9.12886	3.58203
2614.000	11.50137	5.06905	9.15006	3.63268
2615.000	11.48239	5.05778	9.11923	3.58017
2616.000	11.49568	5.05948	9.12501	3.57228
2617.000	11.51466	5.03399	9.11344	3.60175
2618.000	11.43681	5.02183	9.10959	3.55482
2619.000	11.50707	5.05541	9.09995	3.57253
2620.000	11.48239	5.06165	9.11730	3.61540
2621.000	11.48808	5.07316	9.13079	3.57222
2622.000	11.49568	5.02466	9.08453	3.58247
2623.000	11.50137	5.08066	9.11730	3.62127
2624.000	11.46720	5.02710	9.07104	3.57869
2625.000	11.47669	4.99791	9.09995	3.54709
2626.000	11.46340	5.01362	9.11730	3.55475
2627.000	11.45010	5.04868	9.09031	3.58437
2628.000	11.44631	5.01005	9.11344	3.62131
2629.000	11.47859	5.02496	9.13272	3.55068
2630.000	11.48428	5.04034	9.13079	3.55853
2631.000	11.45770	5.03501	9.09031	3.56871
2632.000	11.44061	5.05659	9.15584	3.54849
2633.000	11.44061	5.04692	9.11730	3.54496
2634.000	11.43111	5.05483	9.09224	3.58239
2635.000	11.44441	4.98300	9.12501	3.51162
2636.000	11.45580	5.03117	9.10188	3.54903
2637.000	11.42731	5.04909	9.09224	3.57848
2638.000	11.45390	5.06796	9.13850	3.57606
2639.000	11.46150	5.05429	9.10381	3.55684
2640.000	11.49568	5.04787	9.10381	3.58423
2641.000	11.45200	5.06413	9.09995	3.55101
2642.000	11.47099	5.06572	9.13079	3.52331
2643.000	11.44251	5.04495	9.07875	3.50816
2644.000	11.47099	5.04831	9.07296	3.53953
2645.000	11.46909	5.02900	9.07875	3.57470
2646.000	11.46530	5.04841	9.07296	3.54736
2647.000	11.45010	5.05836	9.10573	3.55878
2648.000	11.48239	5.02490	9.10959	3.59983
2649.000	11.43871	5.02567	9.11730	3.58214
2650.000	11.44821	5.03711	9.07104	3.60217
2651.000	11.48618	5.05772	9.10573	3.57639
2652.000	11.49378	5.06919	9.06525	3.58462
2653.000	11.45960	5.01949	9.08839	3.58634
2654.000	11.46909	5.05802	9.09802	3.60190
2655.000	11.45960	5.03691	9.11344	3.58414
2656.000	11.44251	5.02367	9.15199	3.55245
2657.000	11.45200	4.98867	9.06911	3.50434
2658.000	11.44441	5.00428	9.07104	3.54542
2659.000	11.51086	5.03793	9.09610	3.58040
2660.000	11.44441	5.01396	9.07682	3.51014
2661.000	11.45390	5.00412	9.11344	3.60762
2662.000	11.43681	5.02957	9.07296	3.55127
2663.000	11.45960	5.03304	9.10766	3.53332
2664.000	11.45580	5.02730	9.08260	3.55509
2665.000	11.48998	5.03443	9.07104	3.54151
2666.000	11.49188	4.97249	9.04983	3.59260
2667.000	11.43871	5.00825	9.09417	3.54324
2668.000	11.46340	5.05425	9.07104	3.52781
2669.000	11.48428	5.00358	9.06525	3.52004
2670.000	11.46909	5.01933	9.06718	3.54546
2671.000	11.45580	5.03117	9.07104	3.55325
2672.000	11.46530	5.03294	9.08646	3.56484
2673.000	11.48618	5.04224	9.10766	3.58028
2674.000	11.42921	5.03358	9.09031	3.54327
2675.000	11.43111	5.02387	9.15006	3.50550
2676.000	11.46720	5.04064	9.10959	3.54700
2677.000	11.46720	5.02903	9.10573	3.52747
2678.000	11.46530	5.10258	9.11152	3.55481
2679.000	11.46340	5.06779	9.11730	3.55279
2680.000	11.45960	5.06206	9.11923	3.52538
2681.000	11.45960	5.03304	9.11344	3.54696
2682.000	11.46720	5.04838	9.06911	3.54348
2683.000	11.46340	5.08327	9.08839	3.54721
2684.000	11.45960	5.09301	9.09610	3.55496
2685.000	11.43111	5.08965	9.09031	3.57263
2686.000	11.46909	5.10251	9.10188	3.58034
2687.000	11.47289	5.07343	9.07104	3.53564
2688.000	11.46720	5.05999	9.06525	3.52786
2689.000	11.43301	5.06447	9.10766	3.58615
2690.000	11.45390	5.03314	9.07875	3.54534
2691.000	11.39502	5.08836	9.10381	3.53336
2692.000	11.42351	5.08011	9.08453	3.51006
2693.000	11.40072	5.03214	9.06718	3.46325
2694.000	11.44821	5.06033	9.09031	3.54523
2695.000	11.43871	5.04889	9.09995	3.53339
2696.000	11.43491	5.03928	9.12308	3.49403
2697.000	11.45960	5.01756	9.16162	3.44473
2698.000	11.50707	5.03800	9.15584	3.45066
2699.000	11.48239	5.03844	9.18282	3.47388
2700.000	11.45390	5.02540	9.15584	3.47805
2701.000	11.45390	5.00605	9.11344	3.50978
2702.000	11.48618	5.02096	9.14235	3.49384
2703.000	11.46530	4.95360	9.09224	3.47280
2704.000	11.47859	5.02109	9.10573	3.51768
2705.000	11.52035	5.03776	9.13464	3.48413
2706.000	11.47289	5.05021	9.13464	3.42542
2707.000	11.49568	5.01692	9.11152	3.44717
2708.000	11.48428	5.05581	9.13657	3.48803
2709.000	11.48618	5.00355	9.13272	3.48611
2710.000	11.47289	5.01926	9.10766	3.45112
2711.000	11.48049	5.01332	9.13464	3.46065
2712.000	11.50517	5.03997	9.12115	3.48230
2713.000	11.49947	5.05748	9.10573	3.47463
2714.000	11.46909	5.07543	9.17126	3.46616
2715.000	11.45960	5.03691	9.12693	3.45876
2716.000	11.46340	5.07166	9.13079	3.45481
2717.000	11.49947	5.02653	9.12501	3.50379
2718.000	11.48428	5.03260	9.12693	3.45485
2719.000	11.46150	5.06009	9.14043	3.50951
2720.000	11.47859	5.06172	9.16355	3.53472
2721.000	11.47479	5.09274	9.16162	3.53278
2722.000	11.48618	5.04804	9.15391	3.49373
2723.000	11.48239	5.05198	9.22905	3.50864
2724.000	11.46340	5.03684	9.19245	3.49139
2725.000	11.45200	5.03317	9.15199	3.51527
2726.000	11.44061	5.09142	9.18474	3.48951
2727.000	11.48618	5.05578	9.15199	3.48396
2728.000	11.48049	5.11391	9.19823	3.53633
2729.000	11.46909	5.11025	9.15970	3.57585
2730.000	11.46340	5.13743	9.20016	3.53044
2731.000	11.45580	5.10082	9.19052	3.61270
2732.000	11.48618	5.12348	9.17704	3.67152
2733.000	11.43491	5.13408	9.18282	3.63039
2734.000	11.45010	5.12026	9.15006	3.62877
2735.000	11.42351	5.11881	9.19438	3.66548
2736.000	11.41592	5.11507	9.16933	3.62661
2737.000	11.41212	5.06871	9.22520	3.63582
2738.000	11.36462	5.10051	9.21749	3.63003
2739.000	11.35512	5.10068	9.20401	3.64582
2740.000	11.36272	5.02313	9.20401	3.55193
2741.000	11.38742	5.03431	9.20594	3.55582
2742.000	11.40072	5.01279	9.20594	3.61646
2743.000	11.38552	5.02273	9.18089	3.57172
2744.000	11.40452	4.98950	9.19245	3.60486
2745.000	11.45200	5.01382	9.18860	3.58925
2746.000	11.48428	4.98617	9.17318	3.56593
2747.000	11.57349	4.96138	9.18089	3.65388
2748.000	11.61523	4.99545	9.20786	3.67903
2749.000	11.61143	5.02453	9.20208	3.67322
2750.000	11.57159	5.05812	9.26949	3.65688
2751.000	11.48618	5.07126	9.21171	3.61053
2752.000	11.44821	5.11062	9.23868	3.67871
2753.000	11.38742	5.14460	9.15584	3.70108
2754.000	11.16876	5.22012	9.03826	3.75707
2755.000	11.01074	5.34492	8.84727	3.80210
2756.000	10.66747	5.50021	8.53044	3.92869
2757.000	10.38846	5.56719	8.25568	3.93538
2758.000	10.00737	5.69217	8.05421	3.97656
2759.000	9.42156	5.85167	7.81762	4.06318
2760.000	9.13464	5.99051	7.43112	4.15319
2761.000	8.68699	6.07560	7.15102	4.19898
2762.000	8.31957	6.13004	6.75752	4.29679
2763.000	7.87194	6.21277	6.44538	4.41939
2764.000	7.46222	6.27328	6.20516	4.51186
2765.000	6.94461	6.42864	5.81018	4.51119
2766.000	6.45709	6.51504	5.64185	4.58530
2767.000	6.06640	6.61164	5.33822	4.65257
2768.000	5.70450	6.75065	4.91068	4.80922
2769.000	5.34410	6.90313	4.67706	4.86992
2770.000	4.93619	7.03835	4.45900	4.97377
2771.000	4.46097	7.08607	4.14053	5.04082
2772.000	4.12086	7.16149	3.89855	5.17227
2773.000	3.89659	7.28064	3.58555	5.35524
2774.000	3.44571	7.35070	3.13832	5.44235
2775.000	3.25263	7.51619	2.75185	5.62140
2776.000	3.11466	7.65771	2.35921	5.77860
2777.000	2.74987	7.79287	2.04335	5.91360
2778.000	2.51313	7.82944	1.75305	6.07784
2779.000	2.33355	7.93189	1.38758	6.18310
2780.000	2.08482	7.97220	1.10303	6.28401
2781.000	1.78466	8.07693	0.85400	6.41808
2782.000	1.65824	8.17101	0.65634	6.53032
2783.000	1.46662	8.24772	0.51796	6.57171
2784.000	1.30855	8.27943	0.41319	6.66210
2785.000	1.25717	8.33412	0.31039	6.76421
2786.000	1.23148	8.44321	0.20561	6.85254
2787.000	1.16627	8.56404	0.15223	6.92707
2788.000	1.06746	8.59544	0.12455	6.95648
2789.000	1.00026	8.65589	0.02768	7.02901
2790.000	0.91725	8.68915	-0.11467	7.01920
2791.000	0.83424	8.75930	-0.07908	7.01333
2792.000	0.72750	8.80421	-0.15421	7.06818
2793.000	0.60692	8.81996	-0.22538	7.02700
2794.000	0.43691	8.85904	-0.30643	7.08378
2795.000	0.35388	8.95039	-0.44877	7.06407
2796.000	0.23922	8.96213	-0.61087	7.11286
2797.000	0.13048	9.02623	-0.75912	7.16161
2798.000	0.07908	9.07475	-0.85203	7.20061
2799.000	-0.06129	9.09803	-0.93306	7.24352
2800.000	-0.16804	9.11157	-1.04572	7.22958
2801.000	-0.18188	9.14066	-1.11687	7.28617
2802.000	-0.31632	9.17353	-1.21567	7.28592
2803.000	-0.39144	9.21998	-1.28286	7.36204
2804.000	-0.47249	9.30128	-1.34016	7.41078
2805.000	-0.53773	9.30893	-1.40932	7.46923
2806.000	-0.59308	9.29141	-1.54959	7.51763
2807.000	-0.62075	9.33011	-1.61478	7.58189
2808.000	-0.63064	9.39981	-1.63256	7.58378
2809.000	-0.66622	9.35133	-1.66022	7.65791
2810.000	-0.64052	9.40560	-1.68590	7.69297
2811.000	-0.58715	9.45409	-1.67009	7.72623
2812.000	-0.54564	9.44254	-1.66614	7.76530
2813.000	-0.49226	9.45617	-1.62269	7.80646
2814.000	-0.40726	9.53176	-1.63256	7.81618
2815.000	-0.35981	9.49891	-1.62466	7.83963
2816.000	-0.23131	9.51837	-1.60491	7.83190
2817.000	-0.19375	9.47775	-1.59108	7.83000
2818.000	-0.15421	9.42551	-1.58515	7.79684
2819.000	-0.06722	9.39068	-1.57725	7.75782
2820.000	-0.02175	9.40811	-1.53379	7.76384
2821.000	0.01186	9.33646	-1.48637	7.69175
2822.000	-0.01186	9.30546	-1.49823	7.67608
2823.000	0.03559	9.26865	-1.50415	7.58033
2824.000	0.03361	9.25508	-1.50415	7.59987
2825.000	0.06326	9.18530	-1.47649	7.59997
2826.000	0.07315	9.24732	-1.46266	7.60588
2827.000	0.05536	9.20856	-1.47057	7.56481
2828.000	0.00593	9.19499	-1.39746	7.58264
2829.000	0.00989	9.21244	-1.40932	7.58456
2830.000	0.04152	9.19887	-1.40339	7.60998
2831.000	0.00395	9.21632	-1.42513	7.62358
2832.000	0.02175	9.18530	-1.48835	7.62728
2833.000	0.03559	9.19499	-1.43500	7.69583
2834.000	0.02768	9.18336	-1.42513	7.68805
2835.000	0.05338	9.20662	-1.45871	7.66645
2836.000	0.06722	9.16978	-1.48835	7.74057
2837.000	0.09687	9.15427	-1.44686	7.75438
2838.000	0.14827	9.16007	-1.46662	7.74259
2839.000	0.10478	9.16978	-1.46464	7.79141
2840.000	0.12257	9.21048	-1.43896	7.77588
2841.000	0.20363	9.16004	-1.45081	7.76803
2842.000	0.16014	9.15036	-1.42513	7.74859
2843.000	0.17002	9.13097	-1.46859	7.77578
2844.000	0.16014	9.13485	-1.46859	7.75626
2845.000	0.18584	9.08635	-1.43500	7.72708
2846.000	0.19572	9.15423	-1.47057	7.70548
2847.000	0.17200	9.10381	-1.42908	7.71343
2848.000	0.17991	9.10187	-1.46464	7.67815
2849.000	0.22933	9.10572	-1.45476	7.71139
2850.000	0.19177	9.08829	-1.43500	7.68607
2851.000	0.20758	9.07082	-1.45081	7.69968
2852.000	0.19770	9.05336	-1.46859	7.70548
2853.000	0.18386	9.04755	-1.49230	7.66634
2854.000	0.22142	9.12706	-1.49625	7.67804
2855.000	0.21154	9.06306	-1.48045	7.67419
2856.000	0.22538	9.07663	-1.51206	7.66432
2857.000	0.20758	9.05918	-1.56737	7.66803
2858.000	0.19572	9.05531	-1.53576	7.66619
2859.000	0.22142	9.05723	-1.57330	7.66410
2860.000	0.20956	9.06112	-1.56540	7.67975
2861.000	0.25108	9.05527	-1.62466	7.66782
2862.000	0.24515	9.04363	-1.62071	7.65611
2863.000	0.23922	9.08632	-1.61676	7.68152
2864.000	0.21352	8.99708	-1.59700	7.63471
2865.000	0.26689	9.04362	-1.57132	7.67583
2866.000	0.22735	9.00872	-1.66812	7.64812
2867.000	0.26887	9.05138	-1.62269	7.64634
2868.000	0.21154	9.06306	-1.64046	7.62087
2869.000	0.24119	9.04752	-1.64837	7.64429
2870.000	0.24910	9.01064	-1.67800	7.62464
2871.000	0.26689	9.02034	-1.64441	7.62672
2872.000	0.16409	9.00099	-1.64046	7.61501
2873.000	0.28073	9.04749	-1.66022	7.67549
2874.000	0.23526	9.02036	-1.63256	7.61504
2875.000	0.23526	9.02424	-1.64639	7.67359
2876.000	0.21945	8.97767	-1.64441	7.67360
2877.000	0.21747	8.97767	-1.64046	7.63260
2878.000	0.21747	9.04753	-1.61676	7.65027
2879.000	0.24119	8.97183	-1.68392	7.63048
2880.000	0.26096	8.96406	-1.64441	7.63844
2881.000	0.24317	9.00289	-1.65824	7.64620
2882.000	0.22933	8.98737	-1.64639	7.62671
2883.000	0.18781	8.95828	-1.62466	7.65219
2884.000	0.19770	8.96409	-1.60886	7.66592
2885.000	0.20561	8.96797	-1.63059	7.65217
2886.000	0.17793	8.97963	-1.61873	7.65416
2887.000	0.24119	8.97572	-1.60096	7.65032
2888.000	0.20165	8.94856	-1.62664	7.63265
2889.000	0.23526	8.93884	-1.63849	7.64823
2890.000	0.20363	8.94274	-1.62664	7.63460
2891.000	0.19968	8.97186	-1.64441	7.65211
2892.000	0.20956	8.96991	-1.58910	7.65427
2893.000	0.22142	8.94661	-1.64837	7.61498
2894.000	0.15816	8.93305	-1.65232	7.62864
2895.000	0.12455	8.90006	-1.65429	7.63645
2896.000	0.13048	8.91753	-1.65232	7.61692
2897.000	0.16014	8.93693	-1.62861	7.64827
2898.000	0.17002	8.92528	-1.63849	7.63846
2899.000	0.14234	8.90005	-1.64441	7.62477
2900.000	0.12257	8.93112	-1.64837	7.62280
2901.000	0.13246	8.91559	-1.61083	7.66396
2902.000	0.05338	8.91561	-1.65034	7.60521
2903.000	0.13839	8.94665	-1.61083	7.59363
2904.000	0.06326	8.92337	-1.66417	7.59343
2905.000	0.13641	8.91170	-1.65034	7.61302
2906.000	0.11664	8.92530	-1.61873	7.61900
2907.000	0.08501	8.86511	-1.66219	7.59148
2908.000	0.07908	8.93890	-1.66219	7.58562
2909.000	0.09490	8.85540	-1.67800	7.58947
2910.000	0.09885	8.92919	-1.68392	7.58749
2911.000	0.10478	8.90006	-1.64441	7.60523
2912.000	0.05931	8.90007	-1.66417	7.59539
2913.000	0.02966	8.87095	-1.65627	7.55243
2914.000	0.06722	8.86317	-1.65232	7.57198
2915.000	0.09490	8.87094	-1.63849	7.56422
2916.000	0.05733	8.86318	-1.63454	7.60136
2917.000	-0.00989	8.84570	-1.66812	7.57778
2918.000	0.00000	8.83016	-1.68590	7.58553
2919.000	0.06920	8.84181	-1.65824	7.58564
2920.000	-0.02768	8.81267	-1.70367	7.57374
2921.000	0.04349	8.86512	-1.73923	7.59705
2922.000	0.04152	8.84958	-1.72540	7.56779
2923.000	0.02966	8.86706	-1.73923	7.58337
2924.000	0.03163	8.83793	-1.74910	7.56379
2925.000	0.05536	8.87289	-1.75898	7.54421
2926.000	0.01582	8.86318	-1.74120	7.54624
2927.000	0.04349	8.84958	-1.71750	7.55024
2928.000	0.06920	8.82433	-1.72343	7.52285
2929.000	0.06524	8.84958	-1.73725	7.54625
2930.000	0.02768	8.86706	-1.73528	7.54821
2931.000	0.03361	8.85152	-1.78071	7.53240
2932.000	0.06722	8.83987	-1.75700	7.55790
2933.000	0.03954	8.80296	-1.75898	7.52271
2934.000	0.00593	8.78936	-1.77873	7.56563
2935.000	0.05140	8.84181	-1.81626	7.54202
2936.000	0.06129	8.80879	-1.82416	7.55176
2937.000	0.01779	8.79130	-1.78466	7.57146
2938.000	0.04745	8.80102	-1.76491	7.58913
2939.000	0.02372	8.80296	-1.72738	7.55997
2940.000	0.03163	8.83987	-1.79453	7.53820
2941.000	0.04349	8.82044	-1.76293	7.52074
2942.000	0.02570	8.85347	-1.77281	7.52657
2943.000	-0.00593	8.81656	-1.77281	7.54025
2944.000	0.01977	8.82822	-1.79256	7.50499
2945.000	0.05733	8.82044	-1.77281	7.54415
2946.000	0.01186	8.80490	-1.81231	7.53227
2947.000	0.03163	8.84181	-1.77478	7.50310
2948.000	0.00791	8.76410	-1.80441	7.51080
2949.000	0.00198	8.75633	-1.79058	7.51281
2950.000	-0.02372	8.77382	-1.77478	7.56955
2951.000	0.06524	8.74855	-1.76886	7.53245
2952.000	0.03361	8.80102	-1.80243	7.50886
2953.000	0.01186	8.76410	-1.80638	7.52252
2954.000	-0.02570	8.77382	-1.75108	7.49734
2955.000	0.03163	8.76021	-1.80638	7.49516
2956.000	0.00791	8.78159	-1.77676	7.49723
2957.000	0.04745	8.75244	-1.80638	7.50298
2958.000	0.03163	8.78159	-1.80836	7.51665
2959.000	0.00791	8.80490	-1.79256	7.53235
2960.000	-0.00198	8.71551	-1.75305	7.49733
2961.000	0.04152	8.79907	-1.82021	7.53028
2962.000	0.03559	8.76410	-1.80638	7.47366
2963.000	-0.01186	8.74078	-1.76886	7.55394
2964.000	0.00198	8.76604	-1.81823	7.49902
2965.000	0.05733	8.77964	-1.85971	7.48516
2966.000	0.02768	8.73106	-1.78663	7.49524
2967.000	0.05733	8.73106	-1.79058	7.49522
2968.000	0.04349	8.76993	-1.79848	7.49324
2969.000	0.07117	8.74466	-1.74120	7.50519
2970.000	0.03954	8.73300	-1.80441	7.47171
2971.000	0.08303	8.79324	-1.74713	7.51885
2972.000	0.05338	8.77187	-1.79256	7.50694
2973.000	0.01186	8.73106	-1.78071	7.44444
2974.000	0.00395	8.71940	-1.76886	7.50704
2975.000	0.00989	8.76410	-1.78268	7.52457
2976.000	0.02768	8.75050	-1.81428	7.49513
2977.000	0.05931	8.74855	-1.79651	7.52647
2978.000	0.07710	8.75049	-1.82811	7.51657
2979.000	0.08501	8.73105	-1.77873	7.54413
2980.000	0.07710	8.73300	-1.85971	7.46953
2981.000	0.06722	8.75244	-1.76886	7.45817
2982.000	0.10083	8.75437	-1.78466	7.48156
2983.000	0.07117	8.75438	-1.79651	7.50106
2984.000	0.05338	8.71162	-1.81626	7.48925
2985.000	0.05931	8.78158	-1.83996	7.51261
2986.000	0.07513	8.72522	-1.78861	7.48937
2987.000	0.08501	8.74660	-1.83008	7.49115
2988.000	0.05536	8.77187	-1.80441	7.45803
2989.000	0.03756	8.70774	-1.77676	7.50505
2990.000	0.07315	8.72911	-1.80243	7.47172
2991.000	0.07908	8.72911	-1.79058	7.48545
2992.000	0.10280	8.78352	-1.77281	7.48552
2993.000	0.09885	8.71939	-1.77281	7.50311
2994.000	0.07710	8.74855	-1.80836	7.48538
2995.000	0.08897	8.75243	-1.80836	7.46583
2996.000	0.10280	8.70967	-1.77281	7.46988
2997.000	0.03361	8.70968	-1.73923	7.49738
2998.000	0.07117	8.70190	-1.80638	7.45020
2999.000	0.10874	8.71744	-1.76688	7.45427
3000.000	0.07710	8.70967	-1.79256	7.50499
3001.000	0.10083	8.72327	-1.80441	7.46194
3002.000	0.08106	8.74660	-1.78071	7.47376
3003.000	0.10280	8.73494	-1.77873	7.49527
3004.000	0.07513	8.69412	-1.79256	7.45221
3005.000	0.10083	8.74660	-1.73133	7.45636
3006.000	0.08501	8.70578	-1.80243	7.47954
3007.000	0.05931	8.75632	-1.72343	7.48962
3008.000	0.09885	8.74271	-1.75305	7.48364
3009.000	0.06524	8.71940	-1.73133	7.49937
3010.000	0.14432	8.76213	-1.74910	7.46607
3011.000	0.13048	8.73493	-1.72935	7.48374
3012.000	0.07117	8.71162	-1.73133	7.47982
3013.000	0.09490	8.71939	-1.70960	7.50336
3014.000	0.08303	8.75632	-1.71553	7.51507
3015.000	0.08897	8.70773	-1.69380	7.45846
3016.000	0.13048	8.71549	-1.70565	7.51119
3017.000	0.09885	8.71356	-1.69775	7.49363
3018.000	0.06920	8.71745	-1.69380	7.45846
3019.000	0.09885	8.72716	-1.69182	7.52102
3020.000	0.11269	8.71550	-1.68590	7.48390
3021.000	0.10083	8.66884	-1.68392	7.48391
3022.000	0.01186	8.68635	-1.69182	7.51320
3023.000	0.04943	8.72717	-1.70960	7.51704
3024.000	0.12060	8.72133	-1.67009	7.50351
3025.000	0.03756	8.72912	-1.68590	7.54059
3026.000	0.11269	8.67856	-1.73133	7.51891
3027.000	0.08699	8.74271	-1.67602	7.49567
3028.000	0.06524	8.67857	-1.71355	7.50921
3029.000	0.07315	8.65524	-1.72935	7.51697
3030.000	0.06129	8.68829	-1.67800	7.48980
3031.000	0.06326	8.69996	-1.68590	7.48195
3032.000	0.03954	8.66497	-1.67800	7.51326
3033.000	0.07117	8.70384	-1.69972	7.48972
3034.000	0.08303	8.68829	-1.67404	7.48981
3035.000	0.05733	8.73689	-1.67997	7.47024
3036.000	0.09094	8.69995	-1.67800	7.47612
3037.000	0.01977	8.66886	-1.66022	7.48009
3038.000	0.07710	8.67274	-1.72935	7.44659
3039.000	0.03361	8.67274	-1.69775	7.47995
3040.000	0.06524	8.69218	-1.71750	7.44859
3041.000	0.03163	8.66497	-1.69775	7.48581
3042.000	0.05931	8.70773	-1.71948	7.48573
3043.000	0.01977	8.67469	-1.70565	7.44082
3044.000	0.00791	8.67858	-1.67404	7.44876
3045.000	0.03954	8.67663	-1.67207	7.50546
3046.000	0.08501	8.70967	-1.72738	7.49938
3047.000	0.03163	8.65525	-1.76293	7.45819
3048.000	0.08897	8.68246	-1.68985	7.49757
3049.000	0.01582	8.66302	-1.70960	7.41734
3050.000	0.03163	8.65913	-1.70367	7.49557
3051.000	0.05931	8.69218	-1.72738	7.43291
3052.000	-0.00395	8.64164	-1.72935	7.46223
3053.000	-0.01977	8.64358	-1.74318	7.44263
3054.000	0.04547	8.69413	-1.72738	7.46615
3055.000	0.05338	8.66302	-1.70367	7.48384
3056.000	0.09687	8.69023	-1.75700	7.41325
3057.000	0.00198	8.64747	-1.74318	7.46413
3058.000	0.05338	8.68441	-1.70960	7.45449
3059.000	0.04745	8.66108	-1.73133	7.46809
3060.000	0.07513	8.66691	-1.72343	7.50526
3061.000	0.07315	8.66107	-1.71553	7.50138
3062.000	0.03756	8.65525	-1.72145	7.45640
3063.000	0.05338	8.67274	-1.75305	7.45041
3064.000	0.09490	8.66885	-1.71553	7.46033
3065.000	0.12850	8.64161	-1.69775	7.47995
3066.000	0.04745	8.67663	-1.72540	7.44270
3067.000	0.07513	8.68635	-1.68985	7.48389
3068.000	0.05338	8.66691	-1.69972	7.46821
3069.000	0.13641	8.68050	-1.77083	7.46794
3070.000	0.10478	8.68051	-1.73528	7.44853
3071.000	0.09687	8.66301	-1.69577	7.46432
3072.000	0.05733	8.65524	-1.70170	7.44670
3073.000	0.07117	8.65524	-1.76293	7.44060
3074.000	0.07513	8.70190	-1.71553	7.43687
3075.000	0.08106	8.64552	-1.75700	7.45431
3076.000	0.10280	8.68051	-1.73725	7.42701
3077.000	0.07513	8.66107	-1.71948	7.42121
3078.000	0.09490	8.67273	-1.73528	7.47003
3079.000	0.05931	8.66302	-1.67207	7.42530
3080.000	0.06524	8.62996	-1.75305	7.45432
3081.000	0.04152	8.62802	-1.72145	7.46813
3082.000	0.08699	8.65913	-1.65034	7.43907
3083.000	0.08106	8.65718	-1.71158	7.47012
3084.000	0.09490	8.71161	-1.71355	7.47402
3085.000	0.12850	8.67661	-1.75898	7.47385
3086.000	0.08106	8.69801	-1.72343	7.44857
3087.000	0.10676	8.67662	-1.69972	7.43498
3088.000	0.08897	8.65329	-1.73725	7.43288
3089.000	0.12850	8.64745	-1.71355	7.42515
3090.000	0.11269	8.64162	-1.74910	7.44847
3091.000	0.11664	8.67662	-1.76095	7.40541
3092.000	0.05338	8.65524	-1.74910	7.42305
3093.000	0.07908	8.66107	-1.74120	7.44068
3094.000	0.12060	8.69217	-1.73528	7.46808
3095.000	0.11071	8.68439	-1.72343	7.46421
3096.000	0.09687	8.69995	-1.77281	7.48357
3097.000	0.10280	8.68051	-1.72935	7.44659
3098.000	0.13444	8.71160	-1.72540	7.46616
3099.000	0.06920	8.68246	-1.79453	7.47370
3100.000	0.12455	8.66106	-1.77281	7.43078
3101.000	0.09490	8.63968	-1.73923	7.40745
3102.000	0.06524	8.64357	-1.80046	7.46000
3103.000	0.13048	8.69216	-1.75305	7.45237
3104.000	0.09094	8.67662	-1.78663	7.44050
3105.000	0.13641	8.69994	-1.77478	7.41318
3106.000	0.11071	8.69411	-1.79651	7.43460
3107.000	0.11071	8.65912	-1.75700	7.43084
3108.000	0.07315	8.67274	-1.76886	7.44057
3109.000	0.07315	8.67857	-1.81823	7.45015
3110.000	0.08699	8.71356	-1.76688	7.41516
3111.000	0.10874	8.69995	-1.81231	7.43844
3112.000	0.11467	8.65912	-1.77083	7.42492
3113.000	0.07710	8.69023	-1.81626	7.41496
3114.000	0.08303	8.64163	-1.76688	7.44058
3115.000	0.12455	8.69800	-1.78861	7.39552
3116.000	0.06722	8.70190	-1.79058	7.41898
3117.000	0.08106	8.66690	-1.80046	7.37201
3118.000	0.10874	8.64357	-1.76886	7.40147
3119.000	0.13048	8.69411	-1.78663	7.46005
3120.000	0.13444	8.71160	-1.74318	7.39570
3121.000	0.10083	8.69412	-1.75503	7.45236
3122.000	0.16804	8.75046	-1.75503	7.42890
3123.000	0.11467	8.71355	-1.76293	7.41322
3124.000	0.13839	8.75047	-1.73725	7.41137
3125.000	0.12257	8.71161	-1.73330	7.40943
3126.000	0.13839	8.71743	-1.74713	7.41133
3127.000	0.16804	8.78544	-1.73923	7.43873
3128.000	0.15025	8.71743	-1.77873	7.40534
3129.000	0.21154	8.76404	-1.77083	7.42101
3130.000	0.22340	8.80484	-1.71355	7.39581
3131.000	0.20561	8.80291	-1.70762	7.39975
3132.000	0.25108	8.80482	-1.69380	7.40371
3133.000	0.30841	8.83780	-1.67997	7.43505
3134.000	0.28864	8.85336	-1.62269	7.43917
3135.000	0.34202	8.87662	-1.71158	7.45839
3136.000	0.29852	8.85141	-1.67602	7.42920
3137.000	0.39935	8.90181	-1.68590	7.43112
3138.000	0.40528	8.95228	-1.64837	7.44103
3139.000	0.42900	8.95808	-1.65232	7.42342
3140.000	0.43889	9.01047	-1.66219	7.40970
3141.000	0.42109	9.00273	-1.74910	7.38590
3142.000	0.38946	9.06873	-1.70170	7.39195
3143.000	0.39144	9.01634	-1.71750	7.42709
3144.000	0.37563	9.03964	-1.74910	7.39568
3145.000	0.45272	9.04150	-1.75108	7.37807
3146.000	0.42505	9.00854	-1.71158	7.40756
3147.000	0.46063	9.02985	-1.75503	7.42303
3148.000	0.49028	8.99294	-1.71355	7.46425
3149.000	0.53378	8.96376	-1.73133	7.44268
3150.000	0.52191	8.93660	-1.72145	7.47204
3151.000	0.64052	8.92477	-1.73133	7.44268
3152.000	0.68006	8.97711	-1.69182	7.45456
3153.000	0.69192	8.92662	-1.73330	7.43680
3154.000	0.72157	8.84112	-1.71158	7.39387
3155.000	0.77691	8.83907	-1.64837	7.38824
3156.000	0.81645	8.79820	-1.61083	7.35512
3157.000	0.82238	8.72629	-1.53181	7.35931
3158.000	0.91132	8.65417	-1.47057	7.35756
3159.000	0.95678	8.60545	-1.35795	7.32465
3160.000	0.95283	8.53738	-1.24334	7.13119
3161.000	0.93109	8.45377	-1.02793	6.75539
3162.000	1.05560	8.58186	-0.99433	5.64868
3163.000	1.23544	8.80677	-0.78877	5.46967
3164.000	1.46069	9.06604	0.41516	4.51845
3165.000	1.85773	9.69524	0.24910	5.03218
3166.000	2.14207	10.34136	0.20561	5.48001
3167.000	2.48156	10.96666	-0.00791	6.03935
3168.000	2.89187	11.70419	-0.13246	6.77607
3169.000	3.62099	12.50837	-0.11664	7.39125
3170.000	4.33518	13.35529	-0.21154	8.23669
3171.000	4.75364	14.24532	-0.32620	8.96595
3172.000	4.83609	15.19309	-0.49226	9.73082
3173.000	5.47147	15.73786	-0.48238	10.65580
3174.000	6.38876	16.37039	-0.46261	11.54084
3175.000	NaN	NaN	-0.56738	12.32901
3176.000	NaN	NaN	-0.47052	13.09586
3177.000	NaN	NaN	-0.17595	13.63479
3178.000	NaN	NaN	0.07513	14.01938
3179.000	NaN	NaN	0.26689	14.40436
3180.000	NaN	NaN	NaN	NaN
3181.000	NaN	NaN	NaN	NaN
3182.000	NaN	NaN	NaN	NaN
3183.000	NaN	NaN	NaN	NaN
3184.000	NaN	NaN	NaN	NaN
3185.000	NaN	NaN	NaN	NaN
3186.000	NaN	NaN	NaN	NaN
3187.000	NaN	NaN	NaN	NaN
3188.000	NaN	NaN	NaN	NaN
3189.000	NaN	NaN	NaN	NaN
3190.000	NaN	NaN	NaN	NaN
3191.000	NaN	NaN	NaN	NaN
3192.000	NaN	NaN	NaN	NaN
3193.000	NaN	NaN	NaN	NaN
3194.000	NaN	NaN	NaN	NaN
3195.000	NaN	NaN	NaN	NaN
3196.000	NaN	NaN	NaN	NaN
3197.000	NaN	NaN	NaN	NaN
3198.000	NaN	NaN	NaN	NaN
3199.000	NaN	NaN	NaN	NaN
3200.000	NaN	NaN	NaN	NaN
3201.000	NaN	NaN	NaN	NaN
3202.000	NaN	NaN	NaN	NaN
3203.000	NaN	NaN	NaN	NaN
3204.000	NaN	NaN	NaN	NaN
3205.000	NaN	NaN	NaN	NaN
3206.000	NaN	NaN	NaN	NaN
3207.000	NaN	NaN	NaN	NaN
3208.000	NaN	NaN	NaN	NaN
3209.000	NaN	NaN	NaN	NaN
3210.000	NaN	NaN	NaN	NaN
3211.000	NaN	NaN	NaN	NaN
3212.000	NaN	NaN	NaN	NaN
3213.000	NaN	NaN	NaN	NaN
3214.000	NaN	NaN	NaN	NaN
3215.000	NaN	NaN	NaN	NaN
3216.000	NaN	NaN	NaN	NaN
3217.000	NaN	NaN	NaN	NaN
3218.000	NaN	NaN	NaN	NaN
3219.000	NaN	NaN	NaN	NaN
3220.000	NaN	NaN	NaN	NaN
3221.000	NaN	NaN	NaN	NaN
3222.000	NaN	NaN	NaN	NaN
3223.000	NaN	NaN	NaN	NaN
3224.000	NaN	NaN	NaN	NaN
3225.000	NaN	NaN	NaN	NaN
3226.000	NaN	NaN	NaN	NaN
3227.000	NaN	NaN	NaN	NaN
3228.000	NaN	NaN	NaN	NaN
3229.000	NaN	NaN	NaN	NaN
3230.000	NaN	NaN	NaN	NaN
3231.000	NaN	NaN	NaN	NaN
3232.000	NaN	NaN	NaN	NaN
3233.000	NaN	NaN	NaN	NaN
3234.000	NaN	NaN	NaN	NaN
3235.000	NaN	NaN	NaN	NaN
3236.000	NaN	NaN	NaN	NaN
3237.000	NaN	NaN	NaN	NaN
3238.000	NaN	NaN	NaN	NaN
3239.000	NaN	NaN	NaN	NaN
3240.000	NaN	NaN	NaN	NaN
3241.000	NaN	NaN	NaN	NaN
3242.000	NaN	NaN	NaN	NaN
3243.000	NaN	NaN	NaN	NaN
3244.000	NaN	NaN	NaN	NaN
3245.000	NaN	NaN	NaN	NaN
3246.000	NaN	NaN	NaN	NaN
3247.000	NaN	NaN	NaN	NaN
3248.000	NaN	NaN	NaN	NaN
3249.000	NaN	NaN	NaN	NaN
3250.000	NaN	NaN	NaN	NaN
3251.000	NaN	NaN	NaN	NaN
3252.000	NaN	NaN	NaN	NaN
3253.000	NaN	NaN	NaN	NaN
3254.000	NaN	NaN	NaN	NaN
3255.000	NaN	NaN	NaN	NaN
3256.000	NaN	NaN	NaN	NaN
3257.000	NaN	NaN	NaN	NaN
3258.000	NaN	NaN	NaN	NaN
3259.000	NaN	NaN	NaN	NaN
3260.000	NaN	NaN	NaN	NaN
3261.000	NaN	NaN	NaN	NaN
3262.000	NaN	NaN	NaN	NaN
3263.000	NaN	NaN	NaN	NaN
3264.000	NaN	NaN	NaN	NaN
3265.000	NaN	NaN	NaN	NaN
3266.000	NaN	NaN	NaN	NaN
3267.000	NaN	NaN	NaN	NaN
3268.000	NaN	NaN	NaN	NaN
3269.000	NaN	NaN	NaN	NaN
3270.000	NaN	NaN	NaN	NaN
3271.000	NaN	NaN	NaN	NaN
3272.000	NaN	NaN	NaN	NaN
3273.000	NaN	NaN	NaN	NaN
3274.000	NaN	NaN	NaN	NaN
3275.000	NaN	NaN	NaN	NaN
3276.000	NaN	NaN	NaN	NaN
3277.000	NaN	NaN	NaN	NaN
3278.000	NaN	NaN	NaN	NaN
3279.000	NaN	NaN	NaN	NaN
3280.000	NaN	NaN	NaN	NaN
3281.000	NaN	NaN	NaN	NaN
3282.000	NaN	NaN	NaN	NaN
3283.000	NaN	NaN	NaN	NaN
3284.000	NaN	NaN	NaN	NaN
3285.000	NaN	NaN	NaN	NaN
3286.000	NaN	NaN	NaN	NaN
3287.000	NaN	NaN	NaN	NaN
3288.000	NaN	NaN	NaN	NaN
3289.000	NaN	NaN	NaN	NaN
3290.000	NaN	NaN	NaN	NaN
3291.000	NaN	NaN	NaN	NaN
3292.000	NaN	NaN	NaN	NaN
3293.000	NaN	NaN	NaN	NaN
3294.000	NaN	NaN	NaN	NaN
3295.000	NaN	NaN	NaN	NaN
3296.000	NaN	NaN	NaN	NaN
3297.000	NaN	NaN	NaN	NaN
3298.000	NaN	NaN	NaN	NaN
3299.000	NaN	NaN	NaN	NaN
3300.000	NaN	NaN	NaN	NaN
3301.000	NaN	NaN	NaN	NaN
3302.000	NaN	NaN	NaN	NaN
3303.000	NaN	NaN	NaN	NaN
3304.000	NaN	NaN	NaN	NaN
3305.000	NaN	NaN	NaN	NaN
3306.000	NaN	NaN	NaN	NaN
3307.000	NaN	NaN	NaN	NaN
3308.000	NaN	NaN	NaN	NaN
3309.000	NaN	NaN	NaN	NaN
3310.000	NaN	NaN	NaN	NaN
3311.000	NaN	NaN	NaN	NaN
3312.000	NaN	NaN	NaN	NaN
3313.000	NaN	NaN	NaN	NaN
3314.000	NaN	NaN	NaN	NaN
3315.000	NaN	NaN	NaN	NaN
3316.000	NaN	NaN	NaN	NaN
3317.000	NaN	NaN	NaN	NaN
3318.000	NaN	NaN	NaN	NaN
3319.000	NaN	NaN	NaN	NaN
3320.000	NaN	NaN	NaN	NaN
3321.000	NaN	NaN	NaN	NaN
3322.000	NaN	NaN	NaN	NaN
3323.000	NaN	NaN	NaN	NaN
3324.000	NaN	NaN	NaN	NaN
3325.000	NaN	NaN	NaN	NaN
3326.000	NaN	NaN	NaN	NaN
3327.000	NaN	NaN	NaN	NaN
3328.000	NaN	NaN	NaN	NaN
3329.000	NaN	NaN	NaN	NaN
3330.000	NaN	NaN	NaN	NaN
3331.000	NaN	NaN	NaN	NaN
3332.000	NaN	NaN	NaN	NaN
3333.000	NaN	NaN	NaN	NaN
3334.000	NaN	NaN	NaN	NaN
3335.000	NaN	NaN	NaN	NaN
3336.000	NaN	NaN	NaN	NaN
3337.000	NaN	NaN	NaN	NaN
3338.000	NaN	NaN	NaN	NaN
3339.000	NaN	NaN	NaN	NaN
3340.000	NaN	NaN	NaN	NaN
3341.000	NaN	NaN	NaN	NaN
3342.000	NaN	NaN	NaN	NaN
3343.000	NaN	NaN	NaN	NaN
3344.000	NaN	NaN	NaN	NaN
3345.000	-4.94011	16.39105	NaN	NaN
3346.000	-5.05391	15.71302	NaN	NaN
3347.000	-2.62362	14.08570	NaN	NaN
3348.000	-2.41644	13.78640	NaN	NaN
3349.000	-2.34539	13.37201	NaN	NaN
3350.000	-1.34807	12.67131	NaN	NaN
3351.000	-1.76095	12.21192	NaN	NaN
3352.000	-2.58811	11.92795	NaN	NaN
3353.000	-2.35526	11.53744	NaN	NaN
3354.000	-2.93131	11.18657	NaN	NaN
3355.000	-2.97272	10.84735	NaN	NaN
3356.000	-3.16197	10.48482	NaN	NaN
3357.000	-3.35115	10.06756	NaN	NaN
3358.000	1.03979	9.05195	NaN	NaN
3359.000	0.86191	8.62317	NaN	NaN
3360.000	0.92911	8.22009	NaN	NaN
3361.000	1.02398	7.86103	NaN	NaN
3362.000	0.91330	7.50768	NaN	NaN
3363.000	0.79668	7.08124	NaN	NaN
3364.000	0.78087	6.74407	NaN	NaN
3365.000	0.70971	6.45169	NaN	NaN
3366.000	0.59506	6.07050	NaN	NaN
3367.000	0.54564	5.66503	-0.04152	1.54144
3368.000	0.58517	5.40090	-0.67215	0.79567
3369.000	0.60889	5.22929	-1.34609	0.06563
3370.000	0.79866	5.05938	-1.35202	0.11337
3371.000	0.89551	4.92106	-1.36783	0.17900
3372.000	0.99829	4.76885	-1.39944	0.21678
3373.000	0.95283	4.56143	-1.33621	0.81340
3374.000	0.96271	4.38744	-1.33226	0.88698
3375.000	0.97259	4.24304	-1.30262	1.12757
3376.000	0.90539	4.00763	-1.32436	1.18522
3377.000	0.77296	3.85532	-1.28681	1.22500
3378.000	0.73738	3.66916	-1.30657	1.28065
3379.000	0.63855	3.52261	-1.29669	1.28066
3380.000	0.62866	3.33827	-1.30460	1.28860
3381.000	0.61680	3.21733	-1.32040	1.32239
3382.000	0.61482	3.02097	-1.32436	1.28462
3383.000	0.56540	2.86822	-1.29867	1.32439
3384.000	0.59506	2.78089	-1.30657	1.33035
3385.000	0.61285	2.69156	-1.31052	1.32239
3386.000	0.57727	2.54468	-1.33028	1.35816
3387.000	0.56540	2.44540	-1.28879	1.39794
3388.000	0.56343	2.42157	-1.33424	1.40189
3389.000	0.59703	2.39773	-1.31843	1.43172
3390.000	0.55157	2.35009	-1.27891	1.42379
3391.000	0.55947	2.28454	-1.27298	1.39199
3392.000	0.52784	2.22695	-1.27891	1.42379
3393.000	0.54959	2.28256	-1.30855	1.46154
3394.000	0.50412	2.23093	-1.32040	1.44762
3395.000	0.51598	2.24086	-1.28286	1.47149
3396.000	0.55750	2.18523	-1.31645	1.45955
3397.000	0.52389	2.21702	-1.31448	1.41781
3398.000	0.53378	2.28058	-1.31052	1.42973
3399.000	0.48435	2.22697	-1.36783	1.45554
3400.000	0.48040	2.26074	-1.34412	1.47145
3401.000	0.55157	2.28455	-1.32436	1.47743
3402.000	0.52191	2.30839	-1.34807	1.47344
3403.000	0.50412	2.26669	-1.38561	1.44758
3404.000	0.46063	2.29848	-1.35202	1.48735
3405.000	0.57133	2.37391	-1.38956	1.44360
3406.000	0.51401	2.36400	-1.37968	1.44361
3407.000	0.54564	2.39974	-1.40339	1.47539
3408.000	0.59901	2.42752	-1.37178	1.44957
3409.000	0.59506	2.42752	-1.41525	1.49327
3410.000	0.56738	2.46724	-1.38166	1.46547
3411.000	0.54564	2.40768	-1.40734	1.40980
3412.000	0.55354	2.44938	-1.41129	1.43961
3413.000	0.59110	2.42156	-1.44093	1.44357
3414.000	0.60692	2.43943	-1.37375	1.49330
3415.000	0.65436	2.47316	-1.39746	1.48931
3416.000	0.63064	2.46523	-1.40339	1.45552
3417.000	0.63855	2.45927	-1.42513	1.46544
3418.000	0.59110	2.46922	-1.44883	1.42568
3419.000	0.61878	2.45729	-1.40932	1.42173
3420.000	0.61878	2.45134	-1.42513	1.43762
3421.000	0.63657	2.50891	-1.38956	1.41379
3422.000	0.64448	2.47714	-1.41327	1.47936
3423.000	0.59703	2.47517	-1.37375	1.47740
3424.000	0.60099	2.47517	-1.45674	1.44356
3425.000	0.62866	2.48112	-1.40932	1.47539
3426.000	0.58122	2.49305	-1.43303	1.43562
3427.000	0.58913	2.43348	-1.42710	1.42966
3428.000	0.57529	2.42554	-1.42710	1.45153
3429.000	0.59506	2.42156	-1.41722	1.43563
3430.000	0.60099	2.43943	-1.40932	1.43564
3431.000	0.59703	2.43347	-1.42908	1.47538
3432.000	0.59703	2.46326	-1.45081	1.46145
3433.000	0.54761	2.40172	-1.43698	1.47537
3434.000	0.51005	2.40372	-1.42513	1.44358
3435.000	0.56738	2.44739	-1.44883	1.43561
3436.000	0.52191	2.44343	-1.46859	1.43163
3437.000	0.56936	2.39973	-1.45279	1.46145
3438.000	0.51203	2.38585	-1.47057	1.45150
3439.000	0.55750	2.39576	-1.43105	1.45351
3440.000	0.54564	2.33817	-1.39944	1.46546
3441.000	0.52982	2.39577	-1.45279	1.47337
3442.000	0.51005	2.36599	-1.46464	1.47337
3443.000	0.46854	2.41962	-1.41129	1.46943
3444.000	0.48040	2.38189	-1.46069	1.49523
3445.000	0.50808	2.39777	-1.46662	1.49324
3446.000	0.48831	2.43352	-1.45674	1.49126
3447.000	0.46459	2.37594	-1.44093	1.53102
3448.000	0.47249	2.36600	-1.45081	1.48530
3449.000	0.46854	2.38785	-1.47057	1.50119
3450.000	0.46854	2.38586	-1.46662	1.53100
3451.000	0.47842	2.40969	-1.43896	1.52704
3452.000	0.48238	2.36799	-1.46464	1.51709
3453.000	0.51796	2.36996	-1.47847	1.54093
3454.000	0.50610	2.39578	-1.48242	1.52900
3455.000	0.45470	2.43949	-1.49625	1.54489
3456.000	0.47249	2.41764	-1.51601	1.53295
3457.000	0.42505	2.34219	-1.54564	1.52101
3458.000	0.46656	2.39778	-1.53576	1.55082
3459.000	0.45865	2.41168	-1.50415	1.52700
3460.000	0.44482	2.33026	-1.52391	1.55679
3461.000	0.41912	2.36006	-1.51008	1.56078
3462.000	0.43889	2.34417	-1.53576	1.53691
3463.000	0.48238	2.38586	-1.48637	1.52900
3464.000	0.40923	2.31041	-1.57330	1.51503
3465.000	0.42109	2.33226	-1.54564	1.50312
3466.000	0.42702	2.34020	-1.55157	1.55081
3467.000	0.47249	2.38388	-1.54959	1.48523
3468.000	0.47842	2.38983	-1.60096	1.50507
3469.000	0.44284	2.37396	-1.59700	1.48122
3470.000	0.40726	2.34021	-1.58120	1.46136
3471.000	0.49028	2.38188	-1.57330	1.48124
3472.000	0.48831	2.37593	-1.55947	1.46138
3473.000	0.46459	2.37196	-1.54564	1.48524
3474.000	0.48633	2.39579	-1.58120	1.44745
3475.000	0.48831	2.40969	-1.56737	1.46733
3476.000	0.48435	2.39380	-1.59503	1.47129
3477.000	0.45272	2.38190	-1.55157	1.47728
3478.000	0.46261	2.39977	-1.58515	1.48123
3479.000	0.42900	2.39978	-1.57527	1.50906
3480.000	0.46063	2.37991	-1.62071	1.43749
3481.000	0.46656	2.40572	-1.63256	1.48517
3482.000	0.44482	2.40970	-1.59305	1.47527
3483.000	0.47645	2.41764	-1.59503	1.42160
3484.000	0.46063	2.42360	-1.60293	1.45538
3485.000	0.40133	2.37993	-1.62269	1.44742
3486.000	0.44877	2.41169	-1.56935	1.43951
3487.000	0.45470	2.40771	-1.58515	1.48322
3488.000	0.41714	2.40177	-1.55157	1.45542
3489.000	0.40923	2.38588	-1.58318	1.50508
3490.000	0.43098	2.40772	-1.58120	1.44149
3491.000	0.44877	2.46332	-1.54959	1.47132
3492.000	0.42900	2.43751	-1.55947	1.48721
3493.000	0.43493	2.47722	-1.56737	1.47330
3494.000	0.45668	2.49111	-1.50613	1.51110
3495.000	0.42109	2.41964	-1.55947	1.43355
3496.000	0.40726	2.47723	-1.52984	1.44351
3497.000	0.46854	2.47324	-1.55749	1.46138
3498.000	0.43493	2.46134	-1.51798	1.43159
3499.000	0.42307	2.42758	-1.47847	1.48727
3500.000	0.45865	2.48317	-1.53971	1.48127
3501.000	0.44086	2.44346	-1.53379	1.46338
3502.000	0.43098	2.43751	-1.46662	1.43958
3503.000	0.46854	2.48118	-1.50218	1.43160
3504.000	0.46459	2.46133	-1.52193	1.44749
3505.000	0.46854	2.49707	-1.49823	1.48129
3506.000	0.47052	2.47125	-1.52391	1.47730
3507.000	0.48633	2.46529	-1.49428	1.46937
3508.000	0.45075	2.49112	-1.45871	1.45548
3509.000	0.47249	2.54075	-1.51008	1.42365
3510.000	0.46854	2.52884	-1.47847	1.43758
3511.000	0.49622	2.48911	-1.51798	1.47333
3512.000	0.49622	2.46926	-1.45674	1.42965
3513.000	0.51598	2.50301	-1.46662	1.43759
3514.000	0.47249	2.48714	-1.44488	1.43562
3515.000	0.48633	2.49706	-1.48045	1.45547
3516.000	0.47249	2.46132	-1.43500	1.42966
3517.000	0.43691	2.47524	-1.44686	1.37002
3518.000	0.50610	2.50897	-1.44488	1.47338
3519.000	0.46656	2.48913	-1.42908	1.46743
3520.000	0.44284	2.48715	-1.43303	1.45152
3521.000	0.51005	2.51294	-1.45476	1.40182
3522.000	0.46261	2.47721	-1.43896	1.43562
3523.000	0.50017	2.51294	-1.48242	1.42367
3524.000	0.48831	2.49706	-1.43896	1.42966
3525.000	0.45865	2.47324	-1.40537	1.41179
3526.000	0.46459	2.49508	-1.41327	1.42570
3527.000	0.48040	2.50302	-1.44291	1.40978
3528.000	0.43296	2.51892	-1.41327	1.37799
3529.000	0.46261	2.54472	-1.44686	1.43164
3530.000	0.44086	2.49112	-1.43500	1.42171
3531.000	0.48831	2.53280	-1.40537	1.41775
3532.000	0.47249	2.45140	-1.41920	1.41774
3533.000	0.49622	2.46529	-1.42513	1.42768
3534.000	0.45272	2.52288	-1.42315	1.37998
3535.000	0.45075	2.49707	-1.41327	1.40980
3536.000	0.45668	2.52090	-1.41327	1.41775
3537.000	0.47842	2.53479	-1.41920	1.37799
3538.000	0.50808	2.53478	-1.43105	1.35811
3539.000	0.48633	2.48515	-1.41722	1.38992
3540.000	0.51005	2.52088	-1.38956	1.41776
3541.000	0.48633	2.49507	-1.41327	1.40582
3542.000	0.49622	2.52883	-1.40142	1.35216
3543.000	0.46656	2.51692	-1.38758	1.38199
3544.000	0.50610	2.50102	-1.38561	1.38397
3545.000	0.46656	2.48714	-1.40734	1.33029
3546.000	0.51203	2.48911	-1.39746	1.37005
3547.000	0.50017	2.54074	-1.37573	1.35218
3548.000	0.51203	2.51095	-1.39351	1.34620
3549.000	0.46063	2.49508	-1.36190	1.42772
3550.000	0.50215	2.49904	-1.38758	1.37602
3551.000	0.47645	2.48118	-1.36783	1.42175
3552.000	0.44679	2.49310	-1.39351	1.38993
3553.000	0.48040	2.48118	-1.39154	1.36807
3554.000	0.45075	2.47523	-1.35202	1.38399
3555.000	0.48831	2.47522	-1.38561	1.36012
3556.000	0.47447	2.48317	-1.38956	1.37801
3557.000	0.43098	2.47127	-1.36387	1.35417
3558.000	0.46261	2.49310	-1.36190	1.39790
3559.000	0.45865	2.47920	-1.38363	1.38596
3560.000	0.49028	2.49309	-1.40339	1.37005
3561.000	0.47249	2.46728	-1.36585	1.38995
3562.000	0.46656	2.45140	-1.38758	1.35018
3563.000	0.44086	2.51296	-1.40142	1.32632
3564.000	0.50610	2.47521	-1.35202	1.35815
3565.000	0.46261	2.44743	-1.33819	1.33232
3566.000	0.49226	2.49309	-1.35795	1.33430
3567.000	0.50017	2.50301	-1.33028	1.31642
3568.000	0.47842	2.47721	-1.32831	1.29455
3569.000	0.53180	2.47719	-1.34807	1.31244
3570.000	0.54959	2.50498	-1.35992	1.29851
3571.000	0.47842	2.46331	-1.33819	1.33431
3572.000	0.49226	2.45139	-1.36980	1.30646
3573.000	0.49226	2.49904	-1.32831	1.31841
3574.000	0.51796	2.47918	-1.38166	1.26073
3575.000	0.48435	2.48316	-1.36190	1.27665
3576.000	0.50215	2.44543	-1.36585	1.30050
3577.000	0.49819	2.46131	-1.38363	1.29651
3578.000	0.54564	2.49108	-1.32238	1.28263
3579.000	0.48435	2.47125	-1.33621	1.30847
3580.000	0.52191	2.45932	-1.34412	1.27268
3581.000	0.52191	2.46329	-1.34412	1.28858
3582.000	0.53378	2.46130	-1.31052	1.29059
3583.000	0.52389	2.47520	-1.37573	1.29652
3584.000	0.51203	2.47521	-1.34412	1.28063
3585.000	0.51005	2.51095	-1.32831	1.30052
3586.000	0.48831	2.46926	-1.32040	1.29058
3587.000	0.48435	2.47323	-1.33819	1.27268
3588.000	0.47645	2.47919	-1.28286	1.29855
3589.000	0.51203	2.49904	-1.35004	1.25677
3590.000	0.51401	2.46925	-1.33226	1.26275
3591.000	0.48238	2.48118	-1.31052	1.27071
3592.000	0.49028	2.50302	-1.33621	1.23491
3593.000	0.50017	2.45536	-1.33226	1.25281
3594.000	0.49819	2.44344	-1.33226	1.28859
3595.000	0.44877	2.51296	-1.32238	1.29058
3596.000	0.47842	2.49111	-1.34412	1.28063
3597.000	0.49622	2.53280	-1.33226	1.27269
3598.000	0.48633	2.48713	-1.33621	1.26473
3599.000	0.46459	2.49508	-1.32831	1.30251
3600.000	0.51598	2.49109	-1.36783	1.26670
3601.000	0.43493	2.49708	-1.37771	1.26869
3602.000	0.39737	2.45539	-1.31052	1.28661
3603.000	0.39935	2.52290	-1.35004	1.25876
3604.000	0.43098	2.46332	-1.32238	1.26275
3605.000	0.47052	2.55663	-1.35795	1.26273
3606.000	0.41121	2.46333	-1.37573	1.28061
3607.000	0.46261	2.44544	-1.32238	1.26076
3608.000	0.44482	2.48318	-1.35004	1.27665
3609.000	0.45470	2.47324	-1.33028	1.24088
3610.000	0.41714	2.46333	-1.32831	1.25082
3611.000	0.45668	2.46332	-1.35202	1.29653
3612.000	0.39737	2.48121	-1.35992	1.26472
3613.000	0.41319	2.42560	-1.31645	1.27468
3614.000	0.43493	2.46928	-1.33424	1.27666
3615.000	0.42307	2.47524	-1.36387	1.28261
3616.000	0.39539	2.44546	-1.31645	1.23691
3617.000	0.41516	2.40773	-1.29472	1.28861
3618.000	0.38551	2.44745	-1.32238	1.29853
3619.000	0.42505	2.44943	-1.36190	1.28062
3620.000	0.44482	2.42956	-1.34412	1.23690
3621.000	0.39737	2.46333	-1.35202	1.24683
3622.000	0.42307	2.49907	-1.39154	1.27862
3623.000	0.37167	2.43554	-1.33226	1.27070
3624.000	0.37365	2.42561	-1.36783	1.27267
3625.000	0.39539	2.41170	-1.35004	1.26473
3626.000	0.35190	2.39583	-1.38166	1.30645
3627.000	0.38551	2.46135	-1.34214	1.26672
3628.000	0.41319	2.43950	-1.35399	1.26472
3629.000	0.35981	2.43356	-1.36585	1.28857
3630.000	0.34993	2.41172	-1.34807	1.28461
3631.000	0.34993	2.42562	-1.35992	1.31243
3632.000	0.36969	2.39980	-1.36190	1.27466
3633.000	0.29062	2.42563	-1.37968	1.27862
3634.000	0.31829	2.38591	-1.35004	1.32039
3635.000	0.29457	2.41570	-1.35992	1.28062
3636.000	0.32620	2.38789	-1.37968	1.29055
3637.000	0.33213	2.42761	-1.32633	1.30648
3638.000	0.35388	2.33228	-1.40537	1.31638
3639.000	0.32225	2.41172	-1.39746	1.30644
3640.000	0.27678	2.42961	-1.35795	1.32634
3641.000	0.28864	2.39386	-1.42908	1.30841
3642.000	0.27282	2.43556	-1.37771	1.31639
3643.000	0.32818	2.33427	-1.36783	1.33628
3644.000	0.24910	2.35017	-1.42315	1.30842
3645.000	0.26096	2.37003	-1.38363	1.32434
3646.000	0.26689	2.38790	-1.41722	1.29451
3647.000	0.31039	2.35811	-1.41129	1.36806
3648.000	0.28469	2.34818	-1.41129	1.31638
3649.000	0.25108	2.37401	-1.41722	1.31438
3650.000	0.27876	2.34024	-1.38956	1.33428
3651.000	0.29259	2.35414	-1.38561	1.35018
3652.000	0.23131	2.33032	-1.40339	1.35017
3653.000	0.26096	2.37202	-1.39351	1.36210
3654.000	0.26689	2.33627	-1.42117	1.37998
3655.000	0.24910	2.38195	-1.42513	1.32829
3656.000	0.30050	2.41371	-1.45674	1.35809
3657.000	0.26294	2.38989	-1.44488	1.38394
3658.000	0.20561	2.37401	-1.42710	1.35016
3659.000	0.20758	2.36011	-1.39944	1.35813
3660.000	0.26294	2.36606	-1.41129	1.36408
3661.000	0.26887	2.34024	-1.41327	1.37601
3662.000	0.28073	2.37599	-1.41920	1.39190
3663.000	0.27876	2.34620	-1.42117	1.40780
3664.000	0.26887	2.35414	-1.40537	1.41179
3665.000	0.22142	2.37997	-1.41525	1.37601
3666.000	0.30841	2.35215	-1.42908	1.40780
3667.000	0.28073	2.38989	-1.43303	1.39985
3668.000	0.28271	2.39982	-1.39351	1.43764
3669.000	0.26887	2.37797	-1.37771	1.44957
3670.000	0.25305	2.34223	-1.45081	1.42567
3671.000	0.23526	2.31244	-1.44488	1.41972
3672.000	0.20758	2.37203	-1.44291	1.41972
3673.000	0.20561	2.33628	-1.42710	1.49327
3674.000	0.21945	2.33826	-1.44093	1.42171
3675.000	0.21945	2.37798	-1.43303	1.44159
3676.000	0.26294	2.36010	-1.42710	1.50320
3677.000	0.25503	2.39188	-1.41327	1.50520
3678.000	0.24317	2.39784	-1.41129	1.44359
3679.000	0.26887	2.37202	-1.45476	1.45350
3680.000	0.25305	2.36805	-1.47452	1.43957
3681.000	0.27480	2.39982	-1.47254	1.45945
3682.000	0.26294	2.36804	-1.45674	1.47337
3683.000	0.29852	2.37598	-1.43896	1.43562
3684.000	0.27085	2.36407	-1.47254	1.44156
3685.000	0.24317	2.29853	-1.45476	1.47536
3686.000	0.28073	2.32038	-1.45871	1.44555
3687.000	0.28271	2.33825	-1.50218	1.47533
3688.000	0.24910	2.35812	-1.44488	1.44357
3689.000	0.23329	2.35415	-1.47649	1.43560
3690.000	0.31632	2.38988	-1.47847	1.46143
3691.000	0.22538	2.31045	-1.46464	1.48728
3692.000	0.30050	2.40577	-1.49625	1.44155
3693.000	0.26492	2.33031	-1.50218	1.48924
3694.000	0.31632	2.38194	-1.51798	1.48724
3695.000	0.27085	2.37996	-1.50218	1.43359
3696.000	0.23526	2.33031	-1.52589	1.46339
3697.000	0.31632	2.32831	-1.49625	1.52104
3698.000	0.29062	2.32832	-1.46266	1.46741
3699.000	0.29062	2.35811	-1.54169	1.44549
3700.000	0.29457	2.31640	-1.49032	1.45745
3701.000	0.27480	2.31839	-1.50020	1.48129
3702.000	0.28271	2.33626	-1.49625	1.49322
3703.000	0.28666	2.34024	-1.52193	1.50910
3704.000	0.31829	2.36803	-1.49823	1.49521
3705.000	0.28666	2.35017	-1.51403	1.49122
3706.000	0.32422	2.38988	-1.52391	1.47929
3707.000	0.26294	2.39982	-1.51206	1.50116
3708.000	0.31236	2.35810	-1.54367	1.45741
3709.000	0.30446	2.35612	-1.56342	1.54882
3710.000	0.33609	2.35413	-1.53379	1.52698
3711.000	0.32027	2.40577	-1.54564	1.46337
3712.000	0.31829	2.38789	-1.52984	1.46736
3713.000	0.31434	2.39385	-1.51206	1.48526
3714.000	0.31236	2.39584	-1.50218	1.51309
3715.000	0.35783	2.33625	-1.54169	1.50114
3716.000	0.31236	2.40775	-1.51798	1.50712
3717.000	0.31434	2.36208	-1.51601	1.52699
3718.000	0.35783	2.44349	-1.56145	1.52696
3719.000	0.36969	2.43157	-1.54762	1.55678
3720.000	0.34993	2.39384	-1.55749	1.53292
3721.000	0.37958	2.40178	-1.56342	1.48721
3722.000	0.38749	2.42958	-1.58713	1.56867
3723.000	0.36179	2.42164	-1.54959	1.53889
3724.000	0.35388	2.39980	-1.54169	1.49915
3725.000	0.35981	2.47327	-1.56342	1.55677
3726.000	0.34399	2.45739	-1.53774	1.51903
3727.000	0.35783	2.41370	-1.57725	1.51502
3728.000	0.32620	2.40179	-1.56935	1.56868
3729.000	0.35981	2.43753	-1.56145	1.52298
3730.000	0.35388	2.45540	-1.59503	1.55078
3731.000	0.32422	2.43952	-1.58713	1.59252
3732.000	0.33016	2.42165	-1.58515	1.52893
3733.000	0.34004	2.44151	-1.59108	1.50706
3734.000	0.34399	2.43555	-1.60096	1.53687
3735.000	0.36179	2.48122	-1.56935	1.53689
3736.000	0.29062	2.45145	-1.55354	1.50113
3737.000	0.29852	2.47329	-1.59108	1.56072
3738.000	0.29259	2.45145	-1.56342	1.56670
3739.000	0.32225	2.41768	-1.61083	1.54481
3740.000	0.29655	2.41769	-1.56935	1.53490
3741.000	0.30643	2.40378	-1.58515	1.53489
3742.000	0.29062	2.44152	-1.56737	1.52894
3743.000	0.29457	2.35811	-1.61676	1.52692
3744.000	0.27480	2.37201	-1.63454	1.55472
3745.000	0.27678	2.35414	-1.58515	1.54483
3746.000	0.25503	2.37996	-1.57527	1.48720
3747.000	0.27282	2.42365	-1.58515	1.55675
3748.000	0.30446	2.38790	-1.62071	1.49313
3749.000	0.30841	2.41371	-1.59108	1.52495
3750.000	0.28073	2.41570	-1.64046	1.52491
3751.000	0.30841	2.38392	-1.59700	1.51302
3752.000	0.30841	2.40378	-1.62269	1.60044
3753.000	0.30841	2.42563	-1.65824	1.52291
3754.000	0.31236	2.43953	-1.62071	1.55076
3755.000	0.28864	2.38989	-1.63849	1.53088
3756.000	0.27282	2.42762	-1.63059	1.53287
3757.000	0.27085	2.43358	-1.64639	1.50504
3758.000	0.26492	2.41571	-1.66614	1.51098
3759.000	0.32225	2.41768	-1.65627	1.54676
3760.000	0.32225	2.41371	-1.63059	1.50306
3761.000	0.28864	2.41570	-1.64441	1.54279
3762.000	0.31039	2.37598	-1.61281	1.53487
3763.000	0.31236	2.45144	-1.62269	1.52890
3764.000	0.30050	2.42166	-1.63651	1.53684
3765.000	0.29655	2.45343	-1.62269	1.52095
3766.000	0.30248	2.42761	-1.65034	1.52292
3767.000	0.31434	2.42364	-1.64837	1.52491
3768.000	0.32027	2.45541	-1.64244	1.56267
3769.000	0.31632	2.37796	-1.61083	1.50506
3770.000	0.30643	2.40180	-1.64046	1.55472
3771.000	0.26492	2.38790	-1.61083	1.51102
3772.000	0.33411	2.41569	-1.64837	1.58651
3773.000	0.29457	2.42563	-1.63454	1.54678
3774.000	0.28469	2.42166	-1.62269	1.59448
3775.000	0.33609	2.42761	-1.62861	1.50704
3776.000	0.30643	2.36208	-1.66812	1.54278
3777.000	0.33806	2.46335	-1.64244	1.55074
3778.000	0.35190	2.44548	-1.63651	1.57857
3779.000	0.31236	2.38591	-1.60293	1.52693
3780.000	0.35981	2.45739	-1.61873	1.54878
3781.000	0.34993	2.43952	-1.62071	1.51499
3782.000	0.34399	2.44945	-1.63849	1.58055
3783.000	0.37563	2.43753	-1.60886	1.53289
3784.000	0.32818	2.44945	-1.63256	1.53088
3785.000	0.31632	2.40974	-1.63256	1.53287
3786.000	0.34202	2.42761	-1.64639	1.55273
3787.000	0.31829	2.40378	-1.63651	1.54479
3788.000	0.27876	2.44748	-1.63256	1.53883
3789.000	0.29655	2.43556	-1.60886	1.53289
3790.000	0.30248	2.41967	-1.62071	1.52294
3791.000	0.27678	2.38592	-1.62466	1.52890
3792.000	0.29457	2.41967	-1.62269	1.57262
3793.000	0.30248	2.37002	-1.61676	1.53685
3794.000	0.33806	2.43356	-1.60096	1.54879
3795.000	0.29062	2.44350	-1.62071	1.56865
3796.000	0.31039	2.43953	-1.58515	1.47925
3797.000	0.30841	2.43357	-1.63849	1.53882
3798.000	0.34004	2.42165	-1.61676	1.55474
3799.000	0.29457	2.38591	-1.59305	1.53290
3800.000	0.28469	2.41968	-1.62664	1.51697
3801.000	0.30446	2.43556	-1.59898	1.50507
3802.000	0.30643	2.41570	-1.61083	1.52692
3803.000	0.27085	2.38195	-1.61676	1.51897
3804.000	0.30248	2.43159	-1.65429	1.52093
3805.000	0.27876	2.47131	-1.62861	1.50107
3806.000	0.31632	2.42761	-1.64441	1.51299
3807.000	0.31632	2.40974	-1.63849	1.47722
3808.000	0.27678	2.43954	-1.64441	1.49113
3809.000	0.31829	2.42761	-1.62269	1.50903
3810.000	0.32027	2.41768	-1.62071	1.51897
3811.000	0.28666	2.39386	-1.62466	1.50505
3812.000	0.25899	2.39188	-1.61873	1.46332
3813.000	0.30050	2.43754	-1.64441	1.51497
3814.000	0.28666	2.40975	-1.60491	1.51302
3815.000	0.32027	2.42562	-1.65034	1.47125
3816.000	0.29259	2.46535	-1.64639	1.51497
3817.000	0.28666	2.41967	-1.63849	1.47722
3818.000	0.30050	2.41769	-1.63454	1.49113
3819.000	0.31039	2.44946	-1.62861	1.47524
3820.000	0.24119	2.41968	-1.64244	1.51100
3821.000	0.25701	2.38791	-1.65232	1.47920
3822.000	0.31039	2.46336	-1.63454	1.47722
3823.000	0.29655	2.39783	-1.67404	1.48117
3824.000	0.28271	2.44351	-1.64639	1.48914
3825.000	0.31632	2.42563	-1.65429	1.53881
3826.000	0.24317	2.38195	-1.65232	1.48317
3827.000	0.28666	2.39187	-1.66219	1.45137
3828.000	0.31829	2.40974	-1.63059	1.50703
3829.000	0.28666	2.40577	-1.64244	1.47324
3830.000	0.29062	2.44152	-1.64441	1.51696
3831.000	0.30248	2.43754	-1.60293	1.52295
3832.000	0.31632	2.39981	-1.61478	1.49314
3833.000	0.32818	2.43952	-1.59108	1.49514
3834.000	0.30446	2.39584	-1.62269	1.45338
3835.000	0.33609	2.41966	-1.63651	1.47325
3836.000	0.37365	2.47526	-1.60491	1.48917
3837.000	0.30841	2.40775	-1.64837	1.44343
3838.000	0.26294	2.44748	-1.64244	1.46132
3839.000	0.29852	2.39584	-1.58713	1.50110
3840.000	0.33411	2.44747	-1.59305	1.47129
3841.000	0.31829	2.39782	-1.55354	1.46138
3842.000	0.31632	2.44747	-1.54564	1.45940
3843.000	0.28864	2.39982	-1.57330	1.47925
3844.000	0.32027	2.39584	-1.58120	1.48521
3845.000	0.34202	2.40775	-1.52786	1.47531
3846.000	0.29259	2.39386	-1.53576	1.50512
3847.000	0.30643	2.43159	-1.49823	1.45546
3848.000	0.31434	2.42563	-1.51008	1.49718
3849.000	0.30643	2.40974	-1.52786	1.47332
3850.000	0.33213	2.41569	-1.50218	1.47533
3851.000	0.31632	2.42761	-1.50810	1.44750
3852.000	0.30248	2.44350	-1.50810	1.40576
3853.000	0.34399	2.41966	-1.48242	1.40975
3854.000	0.31829	2.43555	-1.51798	1.46936
3855.000	0.24317	2.43358	-1.47057	1.41175
3856.000	0.32620	2.38591	-1.47649	1.40976
3857.000	0.32225	2.43158	-1.48440	1.45348
3858.000	0.25899	2.40181	-1.44291	1.42965
3859.000	0.34597	2.41569	-1.48045	1.43162
3860.000	0.31236	2.41967	-1.47847	1.46342
3861.000	0.29852	2.40974	-1.46464	1.48132
3862.000	0.32422	2.39186	-1.45476	1.42965
3863.000	0.32422	2.43357	-1.43896	1.44357
3864.000	0.29259	2.44350	-1.44883	1.46940
3865.000	0.32422	2.39981	-1.41327	1.46942
3866.000	0.37563	2.41965	-1.42315	1.45352
3867.000	0.32620	2.43357	-1.41327	1.43365
3868.000	0.35388	2.37994	-1.45674	1.46145
3869.000	0.34993	2.45938	-1.43500	1.41177
3870.000	0.31039	2.39385	-1.45279	1.44356
3871.000	0.30643	2.39584	-1.41525	1.42172
3872.000	0.33213	2.41768	-1.41327	1.42371
3873.000	0.32225	2.41768	-1.44093	1.40978
3874.000	0.36179	2.47526	-1.38758	1.43168
3875.000	0.33213	2.42364	-1.40537	1.40980
3876.000	0.32027	2.39385	-1.42710	1.42569
3877.000	0.39144	2.44149	-1.38758	1.42373
3878.000	0.36772	2.44349	-1.38561	1.44162
3879.000	0.38551	2.40178	-1.42315	1.45153
3880.000	0.35783	2.42562	-1.39549	1.41577
3881.000	0.36376	2.39384	-1.39549	1.41577
3882.000	0.37563	2.43554	-1.40339	1.43167
3883.000	0.33411	2.42761	-1.42315	1.42967
3884.000	0.35190	2.44349	-1.37573	1.42572
3885.000	0.31236	2.41173	-1.39351	1.38794
3886.000	0.35783	2.47129	-1.39549	1.36608
3887.000	0.33213	2.44349	-1.38561	1.41776
3888.000	0.35783	2.41966	-1.40537	1.43365
3889.000	0.33016	2.41569	-1.39154	1.38000
3890.000	0.30643	2.42166	-1.41327	1.40185
3891.000	0.34795	2.40973	-1.39154	1.43764
3892.000	0.33806	2.41768	-1.37178	1.37007
3893.000	0.34795	2.43158	-1.37968	1.39193
3894.000	0.36376	2.43951	-1.39154	1.38397
3895.000	0.33016	2.46335	-1.38758	1.37205
3896.000	0.30841	2.41967	-1.33226	1.37804
3897.000	0.32422	2.41371	-1.37375	1.38199
3898.000	0.35190	2.44746	-1.39154	1.36211
3899.000	0.31829	2.41967	-1.41327	1.41377
3900.000	0.31236	2.39782	-1.37968	1.36211
3901.000	0.34795	2.44349	-1.39549	1.33825
3902.000	0.33213	2.39583	-1.37573	1.38199
3903.000	0.33609	2.41569	-1.36783	1.33031
3904.000	0.32818	2.42364	-1.37968	1.38199
3905.000	0.29655	2.42166	-1.36585	1.31044
3906.000	0.31829	2.41967	-1.36387	1.33230
3907.000	0.33213	2.40974	-1.32633	1.36612
3908.000	0.31039	2.39385	-1.34609	1.33629
3909.000	0.29852	2.39584	-1.33621	1.35617
3910.000	0.31434	2.38988	-1.39154	1.31042
3911.000	0.27282	2.40379	-1.32633	1.37606
3912.000	0.28864	2.42166	-1.30657	1.35420
3913.000	0.26096	2.42762	-1.35795	1.34423
3914.000	0.33016	2.37995	-1.34214	1.36611
3915.000	0.31829	2.42364	-1.33621	1.30847
3916.000	0.30248	2.40974	-1.30064	1.31246
3917.000	0.30841	2.40775	-1.31448	1.31842
3918.000	0.30446	2.37797	-1.31250	1.32637
3919.000	0.30643	2.40776	-1.32436	1.33034
3920.000	0.32422	2.38988	-1.34412	1.33232
3921.000	0.30446	2.42166	-1.35795	1.34622
3922.000	0.32027	2.39782	-1.33226	1.36611
3923.000	0.29259	2.39386	-1.29669	1.35023
3924.000	0.33016	2.41569	-1.30855	1.31643
3925.000	0.26294	2.40578	-1.30064	1.35421
3926.000	0.29655	2.41173	-1.29274	1.31843
3927.000	0.30841	2.43556	-1.32238	1.34425
3928.000	0.31434	2.40577	-1.30460	1.29457
3929.000	0.27876	2.39982	-1.30460	1.29059
3930.000	0.30248	2.43159	-1.32238	1.33630
3931.000	0.30841	2.43159	-1.34016	1.29256
3932.000	0.31236	2.40577	-1.32633	1.31642
3933.000	0.31829	2.40378	-1.30064	1.28264
3934.000	0.31632	2.46336	-1.35202	1.27864
3935.000	0.32422	2.41967	-1.29669	1.33035
3936.000	0.31632	2.41371	-1.30064	1.23692
3937.000	0.30643	2.44549	-1.31645	1.26872
3938.000	0.27876	2.42365	-1.33424	1.28859
3939.000	0.31632	2.40974	-1.35992	1.27665
3940.000	0.24910	2.41372	-1.34412	1.28262
3941.000	0.29655	2.40577	-1.33424	1.26275
3942.000	0.30050	2.42762	-1.33621	1.24286
3943.000	0.30050	2.40180	-1.34214	1.25877
3944.000	0.24910	2.39387	-1.35795	1.24285
3945.000	0.31236	2.46534	-1.34016	1.25081
3946.000	0.32027	2.44151	-1.32436	1.26076
3947.000	0.28864	2.42563	-1.35004	1.25876
3948.000	0.30248	2.39981	-1.34214	1.25479
3949.000	0.31039	2.42960	-1.30262	1.22101
3950.000	0.33609	2.44349	-1.33424	1.24684
3951.000	0.29852	2.43953	-1.34807	1.22894
3952.000	0.31236	2.41173	-1.32040	1.28462
3953.000	0.30841	2.41768	-1.30657	1.24089
3954.000	0.31236	2.47924	-1.33819	1.27268
3955.000	0.34597	2.44349	-1.34214	1.27467
3956.000	0.30446	2.42364	-1.30064	1.21107
3957.000	0.28073	2.42961	-1.31448	1.25679
3958.000	0.30841	2.43556	-1.33621	1.24883
3959.000	0.28073	2.42762	-1.35004	1.25677
3960.000	0.32422	2.42761	-1.30460	1.24288
3961.000	0.31236	2.39981	-1.31052	1.24288
3962.000	0.28271	2.47329	-1.29472	1.23692
3963.000	0.30841	2.45740	-1.33424	1.24088
3964.000	0.31039	2.44350	-1.33226	1.26076
3965.000	0.32225	2.45541	-1.33424	1.24485
3966.000	0.35981	2.49909	-1.32238	1.24088
3967.000	0.34795	2.42760	-1.30855	1.25481
3968.000	0.29852	2.40577	-1.34016	1.25081
3969.000	0.34004	2.41966	-1.32238	1.24486
3970.000	0.27282	2.44946	-1.35004	1.26075
3971.000	0.27876	2.44748	-1.38166	1.22296
3972.000	0.28864	2.42365	-1.34807	1.24286
3973.000	0.27876	2.42563	-1.36980	1.29652
3974.000	0.32225	2.43555	-1.34016	1.28063
3975.000	0.29259	2.43556	-1.35399	1.28659
3976.000	0.25305	2.41770	-1.35795	1.27864
3977.000	0.32027	2.38392	-1.29274	1.31843
3978.000	0.38946	2.40575	-1.23544	1.31448
3979.000	0.40923	2.37794	-1.24334	1.32243
3980.000	0.51796	2.35804	-1.16034	1.31651
3981.000	0.60494	2.34212	-1.11291	1.31056
3982.000	0.69982	2.31030	-0.97259	1.29670
3983.000	0.87179	2.36780	-0.84807	1.27488
3984.000	0.99631	2.29821	-0.68796	1.26499
3985.000	1.07339	2.28624	-0.58122	1.21132
3986.000	1.18406	2.28615	-0.48238	1.18947
3987.000	1.28681	2.27216	-0.35783	1.21534
3988.000	1.35597	2.27408	-0.28073	1.11393
3989.000	1.39154	2.31773	-0.24119	1.10200
3990.000	1.39746	2.29390	-0.22538	1.11592
3991.000	1.37771	2.26215	-0.24910	1.09604
3992.000	1.43105	2.29982	-0.28666	1.05029
3993.000	1.41525	2.35941	-0.30446	1.06620
3994.000	1.37771	2.28995	-0.34993	1.08807
3995.000	1.35004	2.27607	-0.36376	1.05227
3996.000	1.34609	2.33366	-0.51203	1.09004
3997.000	1.28879	2.32776	-0.56343	1.09997
3998.000	1.24334	2.34369	-0.60692	1.06417
3999.000	1.21370	2.33378	-0.69389	1.08602
4000.000	1.20777	2.34570	-0.78087	1.08401
4001.000	1.17220	2.34176	-0.84412	1.14962
4002.000	1.11489	2.34379	-0.82040	1.10588
4003.000	1.10698	2.28621	-0.85598	1.09990
4004.000	1.13070	2.31399	-0.88563	1.13370
4005.000	1.13070	2.30009	-0.85993	1.17347
4006.000	1.11884	2.28024	-0.84610	1.17348
4007.000	1.17418	2.27821	-0.82435	1.18342
4008.000	1.14453	2.27427	-0.85203	1.18143
4009.000	1.13465	2.25839	-0.83028	1.21524
4010.000	1.19394	2.28018	-0.84214	1.16552
4011.000	1.18801	2.27225	-0.74529	1.15163
4012.000	1.24729	2.27617	-0.73540	1.20532
4013.000	1.27891	2.28011	-0.72552	1.18146
4014.000	1.25915	2.23843	-0.70575	1.17550
4015.000	1.27100	2.25430	-0.75517	1.13572
4016.000	1.23544	2.24043	-0.75122	1.14169
4017.000	1.25717	2.26822	-0.75319	1.16157
4018.000	1.19394	2.22855	-0.72354	1.14368
4019.000	1.22951	2.26625	-0.72354	1.13175
4020.000	1.22753	2.21661	-0.69785	1.11784
4021.000	1.21172	2.25038	-0.73738	1.13374
4022.000	1.27298	2.20267	-0.74529	1.14169
4023.000	1.18801	2.17096	-0.74133	1.14964
4024.000	1.21765	2.22456	-0.74331	1.17350
4025.000	1.18010	2.21664	-0.71168	1.15164
4026.000	1.23741	2.21263	-0.71564	1.14567
4027.000	1.23741	2.22653	-0.72157	1.17550
4028.000	1.24532	2.23447	-0.74726	1.14964
4029.000	1.20382	2.23649	-0.71959	1.16357
4030.000	1.21370	2.20272	-0.72552	1.15959
4031.000	1.23544	2.22852	-0.70180	1.14965
4032.000	1.21567	2.25038	-0.71761	1.17152
4033.000	1.27693	2.22252	-0.71168	1.13772
4034.000	1.25322	2.19275	-0.72157	1.17351
4035.000	1.22951	2.24242	-0.71761	1.17550
4036.000	1.21765	2.19477	-0.72750	1.17351
4037.000	1.21567	2.19477	-0.76110	1.19140
4038.000	1.26112	2.18877	-0.70378	1.19539
4039.000	1.22753	2.20270	-0.73540	1.21328
4040.000	1.26112	2.20863	-0.74529	1.20134
4041.000	1.24532	2.21858	-0.73738	1.16356
4042.000	1.22951	2.18681	-0.71366	1.19936
4043.000	1.21172	2.24641	-0.72947	1.19339
4044.000	1.29274	2.22251	-0.72157	1.15959
4045.000	1.26508	2.22055	-0.72354	1.15164
4046.000	1.28088	2.20465	-0.73540	1.20333
4047.000	1.24334	2.22255	-0.74331	1.21526
4048.000	1.25915	2.18679	-0.74529	1.17947
4049.000	1.23939	2.16695	-0.70773	1.19340
4050.000	1.18603	2.14117	-0.72354	1.18743
4051.000	1.18801	2.19876	-0.75319	1.18941
4052.000	1.21567	2.13717	-0.73738	1.18146
4053.000	1.20184	2.18088	-0.71366	1.20930
4054.000	1.18998	2.19876	-0.70773	1.19936
4055.000	1.18406	2.17692	-0.69982	1.21726
4056.000	1.21765	2.18285	-0.71564	1.21328
4057.000	1.22160	2.16696	-0.72157	1.23714
4058.000	1.17220	2.17296	-0.71564	1.24907
4059.000	1.25322	2.22254	-0.73343	1.22322
4060.000	1.21370	2.21066	-0.74726	1.22520
4061.000	1.21172	2.17094	-0.72947	1.22918
4062.000	1.22753	2.17887	-0.74726	1.22918
4063.000	1.22555	2.17887	-0.72750	1.24907
4064.000	1.26310	2.20267	-0.74529	1.24111
4065.000	1.22160	2.21264	-0.74331	1.27093
4066.000	1.19789	2.19081	-0.70971	1.25106
4067.000	1.21370	2.17888	-0.75912	1.25502
4068.000	1.23148	2.19873	-0.70971	1.26498
4069.000	1.18998	2.20273	-0.72354	1.25305
4070.000	1.23148	2.18880	-0.74529	1.26298
4071.000	1.23346	2.18880	-0.71959	1.23714
4072.000	1.23741	2.16297	-0.74726	1.28485
4073.000	1.23741	2.16099	-0.72947	1.28883
4074.000	1.24532	2.18680	-0.74529	1.25304
4075.000	1.23148	2.21065	-0.78284	1.22718
4076.000	1.23148	2.20469	-0.77494	1.27689
4077.000	1.23346	2.21064	-0.75122	1.24508
4078.000	1.21765	2.19874	-0.76703	1.23315
4079.000	1.21172	2.15704	-0.75517	1.28087
4080.000	1.18010	2.16501	-0.80063	1.26694
4081.000	1.25124	2.19275	-0.77889	1.25303
4082.000	1.23939	2.22454	-0.75319	1.20333
4083.000	1.22358	2.20271	-0.77494	1.25502
4084.000	1.15441	2.19482	-0.78877	1.24706
4085.000	1.15639	2.18091	-0.75517	1.24508
4086.000	1.16825	2.16700	-0.80854	1.21922
4087.000	1.17813	2.17692	-0.80063	1.26694
4088.000	1.17220	2.16700	-0.82238	1.23313
4089.000	1.18010	2.19877	-0.76110	1.21526
4090.000	1.15639	2.18687	-0.78877	1.23116
4091.000	1.18603	2.19877	-0.82633	1.26693
4092.000	1.19196	2.17691	-0.79866	1.22121
4093.000	1.19789	2.19081	-0.78482	1.23712
4094.000	1.15441	2.11736	-0.82633	1.21126
4095.000	1.12279	2.17101	-0.84017	1.26295
4096.000	1.16627	2.15509	-0.83621	1.23313
4097.000	1.15046	2.18886	-0.82238	1.25898
4098.000	1.13465	2.17696	-0.81052	1.22717
4099.000	1.18010	2.18288	-0.79470	1.22718
4100.000	1.17220	2.16700	-0.80459	1.23712
4101.000	1.15639	2.16900	-0.81447	1.18740
4102.000	1.18208	2.13323	-0.82435	1.20331
4103.000	1.21765	2.17093	-0.83621	1.23711
4104.000	1.15244	2.16900	-0.86191	1.20330
4105.000	1.16627	2.11735	-0.82831	1.22717
4106.000	1.15046	2.15113	-0.84017	1.25699
4107.000	1.13070	2.16107	-0.82238	1.24109
4108.000	1.14453	2.13723	-0.86784	1.20926
4109.000	1.15639	2.12729	-0.80459	1.22916
4110.000	1.17813	2.19679	-0.81645	1.28682
4111.000	1.14848	2.17695	-0.84610	1.28283
4112.000	1.17418	2.18289	-0.81842	1.24308
4113.000	1.18998	2.15904	-0.83621	1.24904
4114.000	1.19394	2.14911	-0.83226	1.22717
4115.000	1.17220	2.12926	-0.81249	1.29080
4116.000	1.18603	2.14911	-0.87970	1.25101
4117.000	1.15046	2.14318	-0.83424	1.29675
4118.000	1.12675	2.14717	-0.85203	1.29874
4119.000	1.17022	2.16899	-0.79273	1.25303
4120.000	1.15837	2.17297	-0.83819	1.25898
4121.000	1.18208	2.11733	-0.85400	1.29277
4122.000	1.17615	2.14912	-0.85400	1.25499
4123.000	1.15639	2.14318	-0.81842	1.27091
4124.000	1.12872	2.12731	-0.83621	1.25102
4125.000	1.14256	2.14716	-0.85400	1.21722
4126.000	1.14651	2.12729	-0.83424	1.22915
4127.000	1.21172	2.11930	-0.82831	1.26892
4128.000	1.15441	2.14715	-0.83226	1.24307
4129.000	1.20184	2.15903	-0.79866	1.29677
4130.000	1.19987	2.14513	-0.83424	1.27886
4131.000	1.15639	2.12927	-0.82633	1.26296
4132.000	1.22555	2.13915	-0.86784	1.26294
4133.000	1.17418	2.15905	-0.80261	1.27688
4134.000	1.18603	2.15110	-0.82040	1.27290
4135.000	1.18208	2.17096	-0.82238	1.29875
4136.000	1.17220	2.16303	-0.81249	1.26694
4137.000	1.16232	2.17495	-0.79470	1.24905
4138.000	1.22555	2.22654	-0.82831	1.26494
4139.000	1.18603	2.17096	-0.79470	1.28086
4140.000	1.22358	2.18682	-0.82040	1.29875
4141.000	1.16825	2.13919	-0.81645	1.28881
4142.000	1.23544	2.15106	-0.80261	1.33056
4143.000	1.14848	2.18688	-0.83226	1.30073
4144.000	1.14256	2.14319	-0.84017	1.31266
4145.000	1.13465	2.14915	-0.80854	1.28881
4146.000	1.18603	2.19678	-0.82040	1.29079
4147.000	1.25124	2.13516	-0.81052	1.33056
4148.000	1.21567	2.10738	-0.78877	1.31466
4149.000	1.20382	2.13718	-0.82633	1.35839
4150.000	1.22555	2.16298	-0.81052	1.35044
4151.000	1.12872	2.08957	-0.82435	1.33453
4152.000	1.19789	2.17095	-0.80854	1.31068
4153.000	1.20184	2.12924	-0.81645	1.30670
4154.000	1.18208	2.13124	-0.77889	1.33455
4155.000	1.18801	2.13719	-0.80656	1.32460
4156.000	1.16825	2.13919	-0.78680	1.33653
4157.000	1.19789	2.15109	-0.80656	1.35044
4158.000	1.20777	2.16498	-0.79273	1.33454
4159.000	1.17220	2.15508	-0.80656	1.30273
4160.000	1.20184	2.13917	-0.79470	1.29875
4161.000	1.15639	2.14119	-0.77098	1.33057
4162.000	1.15837	2.12133	-0.78284	1.36437
4163.000	1.17022	2.15508	-0.82238	1.31664
4164.000	1.13663	2.08161	-0.84017	1.34844
4165.000	1.13465	2.11936	-0.78087	1.37232
4166.000	1.15244	2.11140	-0.77494	1.37431
4167.000	1.14256	2.11935	-0.78284	1.31665
4168.000	1.15441	2.15311	-0.80459	1.34448
4169.000	1.16034	2.14119	-0.76703	1.34847
4170.000	1.18603	2.13521	-0.77494	1.35443
4171.000	1.16627	2.16502	-0.77494	1.32660
4172.000	1.15441	2.12530	-0.77691	1.34051
4173.000	1.17813	2.11734	-0.80261	1.34448
4174.000	1.17418	2.16898	-0.83424	1.32658
4175.000	1.13070	2.14320	-0.77889	1.36835
4176.000	1.14058	2.09750	-0.78284	1.36039
4177.000	1.13465	2.10347	-0.82238	1.36237
4178.000	1.14848	2.12928	-0.81249	1.34647
4179.000	1.18603	2.12130	-0.80063	1.35840
4180.000	1.15046	2.07167	-0.79866	1.34846
4181.000	1.15837	2.12331	-0.82633	1.33652
4182.000	1.14256	2.09949	-0.80063	1.35045
4183.000	1.16429	2.12927	-0.80854	1.34448
4184.000	1.15244	2.11140	-0.77098	1.35443
4185.000	1.16034	2.08954	-0.78482	1.38226
4186.000	1.12477	2.07368	-0.78482	1.38027
4187.000	1.16825	2.11536	-0.75517	1.36438
4188.000	1.16232	2.11934	-0.79668	1.40015
4189.000	1.17615	2.12926	-0.80459	1.34448
4190.000	1.15441	2.12729	-0.82040	1.39219
4191.000	1.13465	2.07764	-0.80261	1.39418
4192.000	1.16429	2.10344	-0.82238	1.35441
4193.000	1.17022	2.12926	-0.81447	1.35243
4194.000	1.19394	2.13322	-0.82831	1.37827
4195.000	1.14256	2.10743	-0.79470	1.36635
4196.000	1.15639	2.11140	-0.82238	1.36038
4197.000	1.16627	2.08159	-0.82831	1.32459
4198.000	1.17813	2.11138	-0.81052	1.35641
4199.000	1.19196	2.12726	-0.77889	1.40811
4200.000	1.11687	2.14122	-0.81249	1.36635
4201.000	1.15639	2.14715	-0.80063	1.35442
4202.000	1.18406	2.10939	-0.83424	1.38821
4203.000	1.15046	2.08756	-0.80261	1.37828
4204.000	1.17220	2.13125	-0.82238	1.35640
4205.000	1.15837	2.10543	-0.82831	1.38225
4206.000	1.12477	2.11539	-0.84610	1.36435
4207.000	1.13465	2.10744	-0.82238	1.37231
4208.000	1.15639	2.07961	-0.87574	1.34247
4209.000	1.14058	2.12332	-0.84017	1.35838
4210.000	1.18208	2.08357	-0.81645	1.37032
4211.000	1.14651	2.14914	-0.84412	1.35441
4212.000	1.12675	2.14518	-0.83819	1.35640
4213.000	1.18406	2.11733	-0.83819	1.36037
4214.000	1.12477	2.06374	-0.82831	1.37231
4215.000	1.16627	2.14317	-0.83621	1.37031
4216.000	1.18603	2.13719	-0.81052	1.37231
4217.000	1.18998	2.16301	-0.84017	1.35242
4218.000	1.17615	2.15706	-0.76308	1.33256
4219.000	1.18010	2.16501	-0.83819	1.36236
4220.000	1.15244	2.15311	-0.83424	1.33254
4221.000	1.16034	2.14715	-0.81645	1.36436
4222.000	1.19394	2.20472	-0.82831	1.34646
4223.000	1.20579	2.19478	-0.83819	1.32459
4224.000	1.15046	2.16503	-0.82831	1.36038
4225.000	1.18208	2.17692	-0.80854	1.36038
4226.000	1.16627	2.14913	-0.87179	1.34843
4227.000	1.18010	2.17692	-0.87574	1.33849
4228.000	1.14651	2.17298	-0.85203	1.32259
4229.000	1.14848	2.15113	-0.84807	1.34844
4230.000	1.15046	2.18092	-0.84214	1.36037
4231.000	1.16034	2.14516	-0.82435	1.33652
4232.000	1.19394	2.19280	-0.85203	1.32458
4233.000	1.15837	2.14119	-0.83028	1.37032
4234.000	1.13465	2.17894	-0.87574	1.34247
4235.000	1.12477	2.13128	-0.86981	1.31662
4236.000	1.17813	2.17692	-0.82633	1.32459
4237.000	1.15837	2.10941	-0.89156	1.31463
4238.000	1.13860	2.18887	-0.87574	1.33451
4239.000	1.16825	2.13125	-0.89749	1.36830
4240.000	1.13465	2.14121	-0.84017	1.34646
4241.000	1.13268	2.14915	-0.84807	1.36633
4242.000	1.17220	2.17097	-0.87377	1.35837
4243.000	1.12477	2.10943	-0.85400	1.37428
4244.000	1.12477	2.14121	-0.86191	1.33054
4245.000	1.15441	2.14914	-0.85005	1.32061
4246.000	1.14651	2.16702	-0.86586	1.37826
4247.000	1.11094	2.12335	-0.85203	1.33850
4248.000	1.13860	2.12333	-0.86586	1.34446
4249.000	1.11884	2.15711	-0.86191	1.34844
4250.000	1.11489	2.12334	-0.84214	1.30470
4251.000	1.10501	2.13527	-0.82435	1.34447
4252.000	1.09315	2.08760	-0.83819	1.35839
4253.000	1.08129	2.09357	-0.85005	1.35043
4254.000	1.11884	2.11937	-0.85796	1.35043
4255.000	1.09908	2.14918	-0.85005	1.30072
4256.000	1.13268	2.14717	-0.86586	1.33452
4257.000	1.12279	2.10347	-0.84412	1.35043
4258.000	1.11094	2.14122	-0.85796	1.37428
4259.000	1.14453	2.12531	-0.86388	1.34048
4260.000	1.12675	2.11936	-0.83028	1.35044
4261.000	1.11094	2.15115	-0.86191	1.32657
4262.000	1.14058	2.13922	-0.85796	1.36832
4263.000	1.11291	2.11739	-0.86981	1.34843
4264.000	1.11489	2.15711	-0.84017	1.35441
4265.000	1.08722	2.14323	-0.87970	1.35638
4266.000	1.10106	2.13726	-0.85993	1.36633
4267.000	1.10303	2.12335	-0.86981	1.37825
4268.000	1.08524	2.14919	-0.86191	1.38621
4269.000	1.14453	2.15907	-0.84412	1.39218
4270.000	1.10501	2.14520	-0.84807	1.38224
4271.000	1.10896	2.19287	-0.90144	1.38818
4272.000	1.14651	2.17298	-0.82831	1.37628
4273.000	1.11884	2.18293	-0.88167	1.35638
4274.000	1.14453	2.15907	-0.84214	1.36435
4275.000	1.13268	2.11936	-0.86388	1.35838
4276.000	1.10303	2.16109	-0.86191	1.35440
4277.000	1.09908	2.13726	-0.84412	1.39814
4278.000	1.10303	2.16109	-0.85005	1.37627
4279.000	1.10896	2.13924	-0.88563	1.39415
4280.000	1.13268	2.13128	-0.84214	1.40610
4281.000	1.12675	2.12929	-0.88365	1.36433
4282.000	1.12675	2.15313	-0.87179	1.39217
4283.000	1.10106	2.16904	-0.86586	1.31861
4284.000	1.13268	2.13922	-0.85993	1.38223
4285.000	1.16232	2.16701	-0.85005	1.47170
4286.000	1.17022	2.10940	-0.85203	1.39218
4287.000	1.14848	2.12133	-0.87970	1.39018
4288.000	1.16034	2.13920	-0.87377	1.36036
4289.000	1.16429	2.15310	-0.87377	1.38621
4290.000	1.13070	2.17497	-0.85796	1.40410
4291.000	1.16232	2.17296	-0.88167	1.36632
4292.000	1.17813	2.15905	-0.89353	1.39614
4293.000	1.15244	2.15311	-0.84017	1.37628
4294.000	1.16429	2.13721	-0.87574	1.38024
4295.000	1.14453	2.12134	-0.86388	1.37627
4296.000	1.16232	2.14317	-0.86981	1.35440
4297.000	1.18406	2.13720	-0.86191	1.36037
4298.000	1.15046	2.14318	-0.89551	1.33848
4299.000	1.15046	2.10345	-0.93702	1.35636
4300.000	1.15441	2.11934	-0.86388	1.39217
4301.000	1.11884	2.10348	-0.87574	1.42597
4302.000	1.17022	2.12926	-0.90934	1.33848
4303.000	1.18801	2.16103	-0.90144	1.41999
4304.000	1.12477	2.09155	-0.87377	1.37030
4305.000	1.18010	2.08555	-0.89749	1.36035
4306.000	1.13860	2.11141	-0.89353	1.37228
4307.000	1.16429	2.08557	-0.86388	1.37229
4308.000	1.16825	2.08556	-0.89156	1.37427
4309.000	1.14848	2.11935	-0.88563	1.39415
4310.000	1.12082	2.07169	-0.89749	1.37824
4311.000	1.15046	2.12332	-0.90737	1.36631
4312.000	1.17615	2.06967	-0.87970	1.36433
4313.000	1.17813	2.07364	-0.86981	1.38422
4314.000	1.16825	2.08755	-0.85400	1.33055
4315.000	1.17813	2.13720	-0.86981	1.35440
4316.000	1.19196	2.14116	-0.86388	1.37627
4317.000	1.19987	2.10143	-0.86586	1.36832
4318.000	1.17220	2.09351	-0.87574	1.34247
4319.000	1.16825	2.08755	-0.85598	1.37428
4320.000	1.17022	2.06967	-0.82831	1.35242
4321.000	1.13860	2.09154	-0.87970	1.38819
4322.000	1.16232	2.05776	-0.87970	1.35638
4323.000	1.15837	2.07365	-0.90144	1.38023
4324.000	1.17022	2.08159	-0.86191	1.38422
4325.000	1.13070	2.05381	-0.86586	1.34645
4326.000	1.13268	2.08360	-0.88365	1.39614
4327.000	1.11291	2.04985	-0.88365	1.34843
4328.000	1.11094	2.01806	-0.88563	1.36433
4329.000	1.16429	2.05378	-0.89353	1.38222
4330.000	1.15441	2.06968	-0.86586	1.36036
4331.000	1.16627	2.09550	-0.85400	1.37826
4332.000	1.14453	2.05380	-0.85796	1.35639
4333.000	1.10698	2.03793	-0.86586	1.36235
4334.000	1.16034	2.01803	-0.84214	1.36634
4335.000	1.12872	2.08162	-0.86784	1.36036
4336.000	1.12279	2.04587	-0.81447	1.36038
4337.000	1.13465	2.04983	-0.84214	1.35242
4338.000	1.15244	2.04585	-0.87179	1.37825
4339.000	1.14058	2.06969	-0.87970	1.37229
4340.000	1.13465	2.07764	-0.85203	1.34248
4341.000	1.16034	2.07365	-0.83028	1.37032
4342.000	1.15441	2.06770	-0.83819	1.34844
4343.000	1.13070	2.02600	-0.84610	1.35639
4344.000	1.13465	2.05778	-0.82831	1.39417
4345.000	1.14651	2.03790	-0.87377	1.37030
4346.000	1.14651	2.07366	-0.85400	1.33651
4347.000	1.12675	2.05381	-0.88958	1.32457
4348.000	1.15441	2.02797	-0.85796	1.34446
4349.000	1.11489	2.04985	-0.84610	1.30868
4350.000	1.08327	2.05781	-0.85005	1.34844
4351.000	1.11291	2.04985	-0.86191	1.33452
4352.000	1.13465	2.05381	-0.86191	1.31265
4353.000	1.12872	2.02798	-0.86388	1.31265
4354.000	1.10106	2.02800	-0.85203	1.32856
4355.000	1.14256	2.01804	-0.85598	1.32060
4356.000	1.12872	2.02798	-0.84807	1.31067
4357.000	1.11884	1.99621	-0.86784	1.36633
4358.000	1.10106	2.00814	-0.82040	1.36237
4359.000	1.11687	2.02601	-0.85005	1.30470
4360.000	1.09315	1.99026	-0.83819	1.33254
4361.000	1.07339	1.96048	-0.85005	1.30072
4362.000	1.07339	1.98630	-0.87574	1.32457
4363.000	1.09513	1.98827	-0.85598	1.35440
4364.000	1.04572	1.95453	-0.81447	1.36635
4365.000	1.08129	1.99027	-0.81249	1.33851
4366.000	1.10501	1.98231	-0.83226	1.34646
4367.000	1.08524	1.97040	-0.83621	1.32658
4368.000	1.11291	1.97436	-0.84017	1.35441
4369.000	1.08722	2.00417	-0.82238	1.33851
4370.000	1.07339	1.99226	-0.82633	1.31664
4371.000	1.09908	2.02205	-0.80261	1.35243
4372.000	1.08129	1.98232	-0.84017	1.30868
4373.000	1.09908	1.96046	-0.82633	1.33851
4374.000	1.13070	1.93461	-0.81447	1.33056
4375.000	1.06746	1.95651	-0.81447	1.33056
4376.000	1.13465	1.94653	-0.83028	1.33055
4377.000	1.07141	1.98034	-0.83621	1.29476
4378.000	1.13268	1.91474	-0.77494	1.29677
4379.000	1.09513	1.92470	-0.82435	1.32459
4380.000	1.05362	1.93665	-0.81052	1.30670
4381.000	1.10501	1.93264	-0.79866	1.30869
4382.000	1.09315	1.95848	-0.78680	1.32262
4383.000	1.11094	1.96442	-0.75912	1.30473
4384.000	1.14453	1.93460	-0.80656	1.33454
4385.000	1.08920	1.95848	-0.79075	1.31864
4386.000	1.08129	1.93265	-0.81645	1.33652
4387.000	1.11094	1.92071	-0.76110	1.32461
4388.000	1.10106	1.96443	-0.79866	1.35045
4389.000	1.08524	1.93265	-0.73738	1.33058
4390.000	1.09513	1.91476	-0.77098	1.33256
4391.000	1.08129	1.87106	-0.81447	1.33056
4392.000	1.12675	1.90878	-0.78087	1.33256
4393.000	1.12477	1.89686	-0.77889	1.34449
4394.000	1.11291	1.94654	-0.79273	1.28086
4395.000	1.11291	1.85117	-0.77889	1.27689
4396.000	1.11884	1.86706	-0.77889	1.31268
4397.000	1.16429	1.88293	-0.78680	1.29478
4398.000	1.15639	1.89486	-0.81249	1.26694
4399.000	1.12279	1.87501	-0.79075	1.31267
4400.000	1.14058	1.89487	-0.82238	1.25699
4401.000	1.12675	1.85315	-0.76901	1.28484
4402.000	1.12279	1.87501	-0.81249	1.29278
4403.000	1.15639	1.87300	-0.81842	1.29079
4404.000	1.14651	1.84718	-0.82831	1.19535
4405.000	1.15046	1.87896	-0.78680	1.24905
4406.000	1.15639	1.85710	-0.82435	1.22916
4407.000	1.14058	1.85513	-0.83028	1.20728
4408.000	1.13663	1.89686	-0.84412	1.22517
4409.000	1.16429	1.88492	-0.84214	1.27488
4410.000	1.16232	1.89287	-0.88563	1.18539
4411.000	1.14058	1.84718	-0.90342	1.20328
4412.000	1.13860	1.84917	-0.91923	1.19334
4413.000	1.13465	1.84520	-0.82831	1.23512
4414.000	1.15837	1.86505	-0.84017	1.19734
4415.000	1.09908	1.87701	-0.85598	1.21722
4416.000	1.12477	1.82931	-0.89156	1.15358
4417.000	1.14453	1.84122	-0.85796	1.22119
4418.000	1.12675	1.86110	-0.84610	1.18739
4419.000	1.13860	1.83725	-0.85598	1.20131
4420.000	1.09710	1.84919	-0.88167	1.18937
4421.000	1.10896	1.82733	-0.87179	1.20727
4422.000	1.13070	1.87500	-0.87179	1.19932
4423.000	1.11687	1.81938	-0.89353	1.20130
4424.000	1.13860	1.80545	-0.85993	1.20926
4425.000	1.09908	1.80349	-0.85400	1.22318
4426.000	1.14058	1.81738	-0.83424	1.18939
4427.000	1.08920	1.85516	-0.82040	1.15956
4428.000	1.09117	1.84324	-0.82633	1.22120
4429.000	1.09513	1.83330	-0.83819	1.18143
4430.000	1.11489	1.83925	-0.83028	1.22518
4431.000	1.08524	1.81344	-0.83028	1.19933
4432.000	1.12082	1.84123	-0.78284	1.24309
4433.000	1.09117	1.79555	-0.82040	1.21325
4434.000	1.07339	1.78960	-0.77296	1.21128
4435.000	1.11094	1.80746	-0.78284	1.20730
4436.000	1.08722	1.81343	-0.79866	1.22121
4437.000	1.07932	1.80946	-0.82831	1.20132
4438.000	1.09315	1.80548	-0.77296	1.16355
4439.000	1.14651	1.83923	-0.80261	1.17548
4440.000	1.05165	1.82736	-0.80656	1.15360
4441.000	1.10501	1.84323	-0.77889	1.16753
4442.000	1.08722	1.86510	-0.75517	1.16754
4443.000	1.08129	1.85517	-0.77889	1.15560
4444.000	1.07339	1.81742	-0.79075	1.11185
4445.000	1.09315	1.80747	-0.78680	1.18940
4446.000	1.07141	1.83133	-0.79470	1.11980
4447.000	1.10896	1.84323	-0.79075	1.15560
4448.000	1.09710	1.83727	-0.78284	1.11981
4449.000	1.08129	1.82536	-0.80459	1.09991
4450.000	1.07141	1.82139	-0.79075	1.10787
4451.000	1.08327	1.85119	-0.76308	1.07209
4452.000	1.04769	1.84724	-0.80854	1.11184
4453.000	1.08129	1.84920	-0.77889	1.12577
4454.000	1.05560	1.84127	-0.75319	1.08800
4455.000	1.02398	1.82539	-0.79273	1.08600
4456.000	1.04374	1.80352	-0.78284	1.10191
4457.000	1.09117	1.83728	-0.77691	1.09197
4458.000	1.08524	1.84920	-0.75912	1.11782
4459.000	1.08920	1.80747	-0.76308	1.08402
4460.000	1.07339	1.81742	-0.76901	1.10191
4461.000	1.11489	1.88296	-0.73145	1.06812
4462.000	1.11687	1.83130	-0.81052	1.08202
4463.000	1.08327	1.82138	-0.74924	1.06811
4464.000	1.06548	1.84921	-0.75517	1.05618
4465.000	1.06943	1.81941	-0.78087	1.05617
4466.000	1.02991	1.84129	-0.76703	1.07407
4467.000	1.03188	1.80750	-0.76110	1.08203
4468.000	1.05362	1.80948	-0.80854	1.06213
4469.000	1.06153	1.78762	-0.76901	1.04623
4470.000	1.03584	1.82737	-0.73540	1.06016
4471.000	1.02991	1.81545	-0.76901	1.06015
4472.000	1.05362	1.82736	-0.76703	1.05817
4473.000	1.05560	1.79756	-0.78680	1.06611
4474.000	1.03584	1.80750	-0.79668	1.05617
4475.000	1.08129	1.78562	-0.75517	1.03232
4476.000	1.01014	1.78566	-0.76703	1.09396
4477.000	1.06548	1.84325	-0.77296	1.06612
4478.000	1.01805	1.80354	-0.72750	1.05619
4479.000	1.04967	1.77570	-0.76505	1.04822
4480.000	1.05560	1.81147	-0.76703	1.06214
4481.000	1.07141	1.80748	-0.76703	1.03828
4482.000	1.03584	1.80552	-0.78087	1.02833
4483.000	1.02991	1.82340	-0.74726	1.06215
4484.000	1.03979	1.77173	-0.77296	1.05021
4485.000	1.04374	1.76179	-0.76110	1.03828
4486.000	1.04177	1.79955	-0.74529	1.06612
4487.000	1.07339	1.77370	-0.75715	1.04226
4488.000	1.03979	1.78564	-0.75517	1.04425
4489.000	1.01212	1.75187	-0.75517	1.07010
4490.000	1.03781	1.80154	-0.73936	1.06215
4491.000	1.01014	1.80156	-0.76505	1.05419
4492.000	1.03584	1.77372	-0.74924	1.09198
4493.000	1.01014	1.78168	-0.77098	1.09197
4494.000	1.00817	1.75784	-0.74133	1.06215
4495.000	1.07339	1.78960	-0.75319	1.05419
4496.000	1.04572	1.79955	-0.72552	1.05420
4497.000	1.06548	1.81941	-0.74331	1.07607
4498.000	1.02200	1.77174	-0.72552	1.06812
4499.000	0.99236	1.79362	-0.74529	1.04624
4500.000	0.98445	1.80952	-0.76110	1.05220
4501.000	0.94097	1.82146	-0.77296	1.03032
4502.000	0.88760	1.82348	-0.78087	0.99850
4503.000	0.85400	1.84337	-0.80261	1.02634
4504.000	0.82040	1.78774	-0.80656	0.96668
4505.000	0.74924	1.75001	-0.86586	0.96865
