time (ms)	lx (deg)	ly (deg)	rx (deg)	ry (deg)
0.000	4.10119	1.47404	1.71355	0.95441
1.000	4.10709	1.36496	1.68985	0.91864
2.000	4.07759	1.36104	1.67602	0.95046
3.000	4.10709	1.40066	1.70762	0.94845
4.000	4.11299	1.40858	1.69775	1.01009
5.000	4.13856	1.38275	1.73330	0.91464
6.000	4.08546	1.38483	1.69380	0.96238
7.000	4.11693	1.38279	1.70762	0.88086
8.000	4.10709	1.36496	1.69380	0.89081
9.000	4.11889	1.35899	1.70565	0.90671
10.000	4.08742	1.37094	1.69380	0.91466
11.000	4.08349	1.38682	1.67404	0.93058
12.000	4.05005	1.38886	1.71750	0.96236
13.000	4.07956	1.40070	1.69577	0.85104
14.000	4.13070	1.37682	1.68392	0.88683
15.000	4.10513	1.38083	1.67602	0.86497
16.000	4.08742	1.45424	1.69182	0.90472
17.000	4.10119	1.42843	1.70762	0.93056
18.000	4.10119	1.42248	1.68985	0.86099
19.000	4.10316	1.40661	1.66417	0.95444
20.000	4.10906	1.40462	1.68985	0.95045
21.000	4.09529	1.42646	1.67800	0.92064
22.000	4.08742	1.39871	1.71750	0.93056
23.000	4.08152	1.38285	1.65627	0.88884
24.000	4.06972	1.39676	1.70960	0.87489
25.000	4.13070	1.37682	1.66614	0.90076
26.000	4.07169	1.39675	1.65824	0.87889
27.000	4.07956	1.40665	1.67997	0.96238
28.000	4.06972	1.35907	1.66219	0.88883
29.000	4.07562	1.38683	1.68787	0.91864
30.000	4.03628	1.37698	1.68590	0.88683
31.000	4.08742	1.39871	1.67207	0.97829
32.000	4.05595	1.40471	1.68787	0.91467
33.000	4.07366	1.34518	1.70762	0.95442
34.000	4.05595	1.36108	1.68392	0.93654
35.000	4.07759	1.39278	1.67800	0.94250
36.000	4.06185	1.41660	1.68590	0.93852
37.000	4.08939	1.36301	1.66022	0.91866
38.000	4.09529	1.39274	1.65232	0.92264
39.000	4.04021	1.38887	1.64046	0.95445
40.000	4.03628	1.38491	1.65034	0.87890
41.000	4.11103	1.39073	1.67404	0.93654
42.000	4.03825	1.41268	1.66022	0.95842
43.000	4.07366	1.39675	1.67009	0.98426
44.000	4.05989	1.41065	1.65627	0.94649
45.000	4.05399	1.37100	1.67800	0.95244
46.000	4.05005	1.34721	1.66417	0.97233
47.000	4.06382	1.34917	1.69775	0.98027
48.000	4.08939	1.39077	1.68985	0.98822
49.000	4.03825	1.36706	1.63849	0.97433
50.000	4.05792	1.42652	1.67602	1.01010
51.000	4.08742	1.37491	1.70367	0.92460
52.000	4.05399	1.37497	1.65429	1.00414
53.000	4.05202	1.38290	1.66219	0.97034
54.000	4.03235	1.36112	1.72145	0.96435
55.000	4.04415	1.37697	1.65232	0.99420
56.000	4.08546	1.35508	1.70565	1.00412
57.000	4.07562	1.43443	1.62861	0.98030
58.000	4.00874	1.35521	1.73133	1.02398
59.000	4.05595	1.39083	1.69380	0.95840
60.000	4.05202	1.40075	1.71553	0.96634
61.000	4.06185	1.34322	1.69775	0.95045
62.000	4.05595	1.38686	1.67009	1.00414
63.000	4.04612	1.34523	1.69380	1.01406
64.000	4.05202	1.39084	1.68985	1.02997
65.000	4.03235	1.35120	1.68590	1.01208
66.000	4.05399	1.40075	1.72343	0.97429
67.000	4.06382	1.40866	1.66417	0.98227
68.000	4.03628	1.42656	1.69577	0.97430
69.000	4.03038	1.39682	1.68590	1.01804
70.000	4.05989	1.40867	1.69972	0.99418
71.000	4.05989	1.40471	1.68985	0.92461
72.000	4.01267	1.37107	1.70565	1.04189
73.000	4.01858	1.37503	1.68392	0.98027
74.000	4.04021	1.40276	1.70367	1.01406
75.000	4.03038	1.36311	1.70565	0.96237
76.000	4.04612	1.44043	1.68392	0.97829
77.000	4.02251	1.39882	1.67800	0.99022
78.000	4.05792	1.38686	1.68787	0.98425
79.000	3.99497	1.33540	1.72343	0.99218
80.000	4.02448	1.37700	1.69775	1.02798
81.000	4.04808	1.37101	1.69182	1.02599
82.000	4.05399	1.41661	1.68787	0.97431
83.000	4.00874	1.40281	1.72343	0.93055
84.000	4.08939	1.42647	1.79058	0.98618
85.000	4.07956	1.39475	1.72738	0.99218
86.000	4.10119	1.46809	1.74318	1.02199
87.000	4.13463	1.49579	1.77873	1.05974
88.000	4.14053	1.47595	1.85378	1.10342
89.000	4.10316	1.46611	1.78071	1.11937
90.000	4.00677	1.50793	1.72540	1.06573
91.000	3.93988	1.48227	1.62269	1.00814
92.000	3.80605	1.44878	1.46464	1.04599
93.000	3.65841	1.48077	1.32040	0.96055
94.000	3.48511	1.52867	1.23741	0.95860
95.000	3.15605	1.55697	1.02595	0.87117
96.000	2.91357	1.46400	0.74924	0.77776
97.000	2.62954	1.48024	0.49424	0.81956
98.000	2.37500	1.50039	0.29062	0.79174
99.000	2.19735	1.46879	0.11664	0.84744
100.000	1.87156	1.48101	-0.11071	0.76986
101.000	1.61083	1.47525	-0.34004	0.84345
102.000	1.48045	1.42168	-0.52389	0.79967
103.000	1.33226	1.31642	-0.67413	0.89511
104.000	1.25322	1.34429	-0.71366	0.85533
105.000	1.19789	1.30456	-0.80063	0.90901
106.000	1.14848	1.22705	-0.85203	0.89110
107.000	1.10303	1.25093	-0.88958	0.91893
108.000	1.17615	1.22306	-0.84610	0.90104
109.000	1.18801	1.23697	-0.86191	0.93485
110.000	1.28088	1.27072	-0.80063	0.88514
111.000	1.35795	1.22695	-0.77494	0.90504
112.000	1.46266	1.17919	-0.71959	0.83942
113.000	1.53774	1.18113	-0.69389	0.84539
114.000	1.61478	1.19500	-0.65041	0.82352
115.000	1.65034	1.12342	-0.60099	0.79568
116.000	1.70762	1.12538	-0.56936	0.78375
117.000	1.75305	1.19691	-0.53180	0.81757
118.000	1.77478	1.18695	-0.50412	0.75591
119.000	1.80243	1.15911	-0.51203	0.79768
120.000	1.77281	1.20286	-0.49424	0.79172
121.000	1.71948	1.21482	-0.53180	0.82353
122.000	1.72343	1.20885	-0.43691	0.91504
123.000	1.67009	1.20093	-0.42702	0.89913
124.000	1.67997	1.25261	-0.45865	0.90111
125.000	1.61478	1.25265	-0.46459	0.86332
126.000	1.60886	1.22482	-0.49424	0.94088
127.000	1.62071	1.24271	-0.46459	0.90111
128.000	1.64244	1.24667	-0.48831	0.87724
129.000	1.58120	1.26658	-0.57331	0.82950
130.000	1.63454	1.23673	-0.59901	0.85535
131.000	1.60293	1.26259	-0.61680	0.79170
132.000	1.60688	1.21290	-0.61878	0.76385
133.000	1.60491	1.20495	-0.63459	0.77579
134.000	1.60293	1.22085	-0.63459	0.79965
135.000	1.60688	1.16917	-0.66424	0.76186
136.000	1.58910	1.19104	-0.64448	0.74197
137.000	1.59108	1.23477	-0.69389	0.76384
138.000	1.58120	1.22484	-0.66029	0.74396
139.000	1.59898	1.24669	-0.69982	0.76185
140.000	1.59503	1.27254	-0.68796	0.71412
141.000	1.56342	1.19702	-0.69587	0.80362
142.000	1.59305	1.24073	-0.69982	0.75390
143.000	1.59898	1.20098	-0.65041	0.80761
144.000	1.61676	1.27054	-0.63657	0.78772
145.000	1.58910	1.28049	-0.64843	0.71015
146.000	1.57527	1.24671	-0.66424	0.78374
147.000	1.60491	1.27253	-0.66227	0.75987
148.000	1.63059	1.27450	-0.67215	0.70418
149.000	1.64639	1.26853	-0.63855	0.76982
150.000	1.64837	1.31623	-0.67413	0.81357
151.000	1.62664	1.32618	-0.64645	0.74197
152.000	1.63256	1.29239	-0.66227	0.74992
153.000	1.58713	1.28447	-0.63459	0.76783
154.000	1.61873	1.31227	-0.67413	0.73998
155.000	1.61478	1.32222	-0.61680	0.71015
156.000	1.63454	1.33214	-0.63459	0.70219
157.000	1.60096	1.35601	-0.65831	0.69622
158.000	1.62861	1.29239	-0.60099	0.72607
159.000	1.63059	1.29637	-0.61482	0.70816
160.000	1.62466	1.30233	-0.62866	0.73203
161.000	1.62466	1.36395	-0.59110	0.75590
162.000	1.60886	1.31029	-0.56738	0.77977
163.000	1.63651	1.31028	-0.60099	0.77579
164.000	1.63849	1.30829	-0.61680	0.72209
165.000	1.65429	1.31424	-0.64250	0.74993
166.000	1.53576	1.32425	-0.61680	0.76783
167.000	1.58910	1.30832	-0.61087	0.72805
168.000	1.63256	1.31425	-0.58913	0.77380
169.000	1.57923	1.27255	-0.59110	0.74397
170.000	1.60886	1.31029	-0.59110	0.76784
171.000	1.60491	1.31626	-0.58715	0.74198
172.000	1.63256	1.32419	-0.58715	0.76983
173.000	1.63256	1.38580	-0.60692	0.74198
174.000	1.60688	1.29837	-0.60692	0.77579
175.000	1.58318	1.30832	-0.58913	0.80563
176.000	1.55947	1.32026	-0.59110	0.77977
177.000	1.61478	1.30631	-0.60494	0.79568
178.000	1.57527	1.32423	-0.62471	0.81358
179.000	1.60293	1.27850	-0.60692	0.76187
180.000	1.59700	1.31229	-0.61285	0.72805
181.000	1.57527	1.30236	-0.59506	0.78772
182.000	1.56935	1.29640	-0.60692	0.77181
183.000	1.53576	1.28052	-0.63064	0.79369
184.000	1.54564	1.26660	-0.62471	0.75988
185.000	1.58318	1.28049	-0.64843	0.79567
186.000	1.54169	1.26064	-0.63657	0.81556
187.000	1.52984	1.28053	-0.61482	0.81557
188.000	1.55157	1.30039	-0.61878	0.79568
189.000	1.54762	1.31828	-0.66029	0.81556
190.000	1.58120	1.32224	-0.60889	0.86927
191.000	1.57923	1.37193	-0.61878	0.82352
192.000	1.55354	1.30834	-0.60296	0.85137
193.000	1.56540	1.32225	-0.62273	0.84142
194.000	1.57725	1.26658	-0.66820	0.84539
195.000	1.56145	1.31231	-0.63855	0.80363
196.000	1.53181	1.28053	-0.66029	0.77777
197.000	1.55552	1.30834	-0.62866	0.86131
198.000	1.53774	1.29245	-0.68994	0.82749
199.000	1.57330	1.31032	-0.65041	0.85534
200.000	1.57527	1.33615	-0.66029	0.83943
201.000	1.60688	1.33216	-0.65238	0.87921
202.000	1.58910	1.30633	-0.63855	0.86926
203.000	1.60096	1.31427	-0.65238	0.87125
204.000	1.59503	1.30434	-0.64448	0.89711
205.000	1.58515	1.32820	-0.58715	0.86132
206.000	1.60096	1.33415	-0.61482	0.86330
207.000	1.59108	1.29242	-0.65041	0.88716
208.000	1.59305	1.32422	-0.66227	0.86528
209.000	1.61478	1.28843	-0.63855	0.88517
210.000	1.63256	1.34009	-0.61878	0.85932
211.000	1.58910	1.26260	-0.64645	0.88318
212.000	1.58515	1.29242	-0.59110	0.79369
213.000	1.58910	1.31826	-0.59110	0.82949
214.000	1.56342	1.32424	-0.60692	0.82750
215.000	1.55749	1.30635	-0.59703	0.83944
216.000	1.58318	1.35801	-0.54959	0.84939
217.000	1.58515	1.29838	-0.61285	0.81557
218.000	1.55552	1.31231	-0.63855	0.84937
219.000	1.57330	1.30833	-0.60692	0.80165
220.000	1.59108	1.33614	-0.60099	0.74794
221.000	1.60096	1.32620	-0.64645	0.76385
222.000	1.64441	1.33015	-0.61087	0.71612
223.000	1.60491	1.31825	-0.60692	0.81358
224.000	1.63256	1.33015	-0.61680	0.81756
225.000	1.60096	1.37788	-0.62075	0.76982
226.000	1.61873	1.32420	-0.60494	0.76187
227.000	1.60688	1.35005	-0.60692	0.76783
228.000	1.63059	1.34009	-0.62668	0.77976
229.000	1.59108	1.36397	-0.57727	0.83745
230.000	1.57725	1.36994	-0.57529	0.83347
231.000	1.64046	1.39772	-0.63657	0.80562
232.000	1.57725	1.35007	-0.61087	0.82750
233.000	1.58515	1.40571	-0.56936	0.82950
234.000	1.62071	1.36991	-0.58913	0.84540
235.000	1.60096	1.34806	-0.57133	0.79370
236.000	1.62466	1.36991	-0.60494	0.81358
237.000	1.60886	1.40172	-0.59703	0.80960
238.000	1.56540	1.39181	-0.56343	0.76187
239.000	1.59898	1.38185	-0.57133	0.79966
240.000	1.60688	1.39377	-0.57924	0.82154
241.000	1.59898	1.42756	-0.59901	0.79767
242.000	1.61676	1.41364	-0.59703	0.75590
243.000	1.58910	1.37987	-0.56936	0.73403
244.000	1.63849	1.37388	-0.59110	0.75590
245.000	1.62664	1.39376	-0.59703	0.75391
246.000	1.57330	1.39578	-0.61087	0.72408
247.000	1.58713	1.37789	-0.57331	0.72209
248.000	1.59503	1.36595	-0.62273	0.73601
249.000	1.58515	1.38584	-0.57133	0.71414
250.000	1.57330	1.42758	-0.55947	0.69822
251.000	1.61281	1.38781	-0.57924	0.70618
252.000	1.60293	1.46532	-0.54761	0.69624
253.000	1.58318	1.44745	-0.54564	0.74397
254.000	1.60293	1.41365	-0.52191	0.77580
255.000	1.59305	1.46135	-0.53575	0.66640
256.000	1.56145	1.39778	-0.57133	0.76983
257.000	1.59305	1.45142	-0.54366	0.69425
258.000	1.58713	1.42558	-0.52191	0.71613
259.000	1.59898	1.47725	-0.52784	0.69226
260.000	1.61281	1.42557	-0.52191	0.73602
261.000	1.64837	1.47721	-0.52587	0.71215
262.000	1.58713	1.40969	-0.51796	0.73204
263.000	1.59503	1.43353	-0.53180	0.71414
264.000	1.58910	1.40571	-0.52389	0.74000
265.000	1.58120	1.40969	-0.56738	0.73403
266.000	1.55354	1.43753	-0.56540	0.71811
267.000	1.56540	1.42361	-0.55354	0.74596
268.000	1.58713	1.41167	-0.52982	0.73005
269.000	1.57132	1.37988	-0.51994	0.73801
270.000	1.58120	1.47130	-0.52982	0.74000
271.000	1.56342	1.41368	-0.50808	0.73801
272.000	1.54367	1.42959	-0.50610	0.71215
273.000	1.63059	1.44145	-0.46261	0.72807
274.000	1.55552	1.46734	-0.51203	0.77182
275.000	1.55749	1.47132	-0.48435	0.76785
276.000	1.55354	1.48324	-0.54761	0.74397
277.000	1.54959	1.41170	-0.54168	0.74000
278.000	1.52786	1.44550	-0.50412	0.73204
279.000	1.57132	1.43553	-0.51598	0.72011
280.000	1.59898	1.41763	-0.52191	0.73801
281.000	1.54564	1.40773	-0.53575	0.72607
282.000	1.53379	1.49518	-0.51598	0.72210
283.000	1.56540	1.38784	-0.53378	0.70419
284.000	1.54762	1.42561	-0.53575	0.70618
285.000	1.52984	1.44351	-0.49819	0.71812
286.000	1.55749	1.44747	-0.52389	0.70420
287.000	1.53576	1.42562	-0.57331	0.71016
288.000	1.57923	1.46136	-0.52784	0.73403
289.000	1.52786	1.43357	-0.52191	0.67834
290.000	1.55947	1.41567	-0.56936	0.69623
291.000	1.57132	1.48124	-0.48040	0.72011
292.000	1.53379	1.44550	-0.55947	0.67436
293.000	1.51206	1.44352	-0.52587	0.70022
294.000	1.48835	1.45546	-0.54168	0.77580
295.000	1.54762	1.40375	-0.53773	0.73204
296.000	1.51403	1.37595	-0.50610	0.70420
297.000	1.53774	1.37394	-0.51401	0.76586
298.000	1.51601	1.44551	-0.54366	0.74795
299.000	1.55552	1.48920	-0.54959	0.73403
300.000	1.56737	1.42957	-0.49622	0.73602
301.000	1.50415	1.41372	-0.52389	0.68033
302.000	1.51403	1.44948	-0.53180	0.71016
303.000	1.53774	1.45146	-0.51796	0.79171
304.000	1.50415	1.41372	-0.50808	0.74796
305.000	1.52589	1.45743	-0.52587	0.76586
306.000	1.54564	1.40971	-0.48435	0.69624
307.000	1.51403	1.46141	-0.55157	0.72408
308.000	1.52193	1.44153	-0.51598	0.72807
309.000	1.52193	1.42960	-0.54366	0.69027
310.000	1.49823	1.41372	-0.53971	0.73602
311.000	1.52984	1.39184	-0.50412	0.69823
312.000	1.52193	1.40178	-0.52982	0.71414
313.000	1.55947	1.41765	-0.52191	0.69226
314.000	1.55749	1.42560	-0.52982	0.69823
315.000	1.52984	1.37593	-0.49028	0.70221
316.000	1.53379	1.40376	-0.49424	0.73403
317.000	1.49032	1.42565	-0.50808	0.73006
318.000	1.53181	1.39382	-0.49424	0.77580
319.000	1.49823	1.46539	-0.51401	0.75392
320.000	1.51403	1.41371	-0.49622	0.72011
321.000	1.50613	1.36800	-0.46261	0.76387
322.000	1.52391	1.40973	-0.53971	0.73801
323.000	1.51403	1.37396	-0.54366	0.74000
324.000	1.47254	1.35609	-0.53575	0.74199
325.000	1.51206	1.38588	-0.48040	0.73603
326.000	1.48045	1.40976	-0.48633	0.71415
327.000	1.50415	1.35608	-0.52587	0.74398
328.000	1.51008	1.34216	-0.48238	0.73404
329.000	1.52589	1.33022	-0.49028	0.66442
330.000	1.51206	1.38588	-0.48831	0.68033
331.000	1.51206	1.41371	-0.48633	0.81360
332.000	1.53971	1.43754	-0.45865	0.74199
333.000	1.49625	1.39583	-0.45272	0.72012
334.000	1.52589	1.39581	-0.52191	0.70420
335.000	1.52786	1.39382	-0.45865	0.68232
336.000	1.53774	1.38388	-0.49819	0.73403
337.000	1.51996	1.44749	-0.49819	0.76387
338.000	1.52984	1.41767	-0.53180	0.76784
339.000	1.50810	1.43756	-0.53773	0.75591
340.000	1.51008	1.40576	-0.51598	0.73204
341.000	1.52589	1.38985	-0.49424	0.71414
342.000	1.54169	1.36798	-0.51598	0.72011
343.000	1.53379	1.38587	-0.46261	0.70818
344.000	1.51403	1.39781	-0.51203	0.67635
345.000	1.51996	1.40973	-0.45272	0.68232
346.000	1.51601	1.38191	-0.51203	0.70022
347.000	1.52589	1.42165	-0.46063	0.70221
348.000	1.53971	1.38189	-0.47447	0.79570
349.000	1.48637	1.37596	-0.46063	0.75393
350.000	1.54367	1.40176	-0.47447	0.75592
351.000	1.52193	1.41569	-0.46459	0.73802
352.000	1.51601	1.37992	-0.46656	0.70818
353.000	1.54367	1.39779	-0.43691	0.72608
354.000	1.53379	1.40972	-0.47645	0.73603
355.000	1.53971	1.41568	-0.47447	0.74398
356.000	1.54762	1.44747	-0.43889	0.76587
357.000	1.55354	1.42163	-0.43889	0.74399
358.000	1.55354	1.41965	-0.47052	0.67635
359.000	1.54564	1.41369	-0.49028	0.76785
360.000	1.54564	1.43158	-0.48633	0.70221
361.000	1.58910	1.41366	-0.47645	0.72011
362.000	1.56540	1.40572	-0.44877	0.79570
363.000	1.55947	1.43554	-0.49028	0.79569
364.000	1.52984	1.41767	-0.47447	0.68630
365.000	1.51798	1.43159	-0.48435	0.76387
366.000	1.50613	1.44353	-0.48831	0.73205
367.000	1.49625	1.42366	-0.51796	0.72409
368.000	1.53971	1.45742	-0.48238	0.82553
369.000	1.52589	1.41370	-0.51994	0.82354
370.000	1.55749	1.45740	-0.46854	0.74597
371.000	1.53971	1.45543	-0.47842	0.76984
372.000	1.54564	1.45542	-0.45272	0.78774
373.000	1.54959	1.42561	-0.47645	0.73801
374.000	1.59503	1.45340	-0.46459	0.73603
375.000	1.55354	1.45542	-0.48040	0.74995
376.000	1.54959	1.45145	-0.47052	0.78973
377.000	1.50810	1.46141	-0.49226	0.75989
378.000	1.51403	1.42961	-0.49819	0.82553
379.000	1.52984	1.43159	-0.49226	0.77183
380.000	1.55354	1.42958	-0.46261	0.78376
381.000	1.54367	1.42959	-0.50808	0.80166
382.000	1.56145	1.42759	-0.47842	0.79768
383.000	1.52984	1.45146	-0.47052	0.78973
384.000	1.57725	1.44944	-0.45470	0.78575
385.000	1.53971	1.44748	-0.49622	0.77580
386.000	1.55354	1.46734	-0.51598	0.81558
387.000	1.55749	1.50311	-0.43493	0.84741
388.000	1.57923	1.48124	-0.51005	0.79171
389.000	1.56540	1.45541	-0.49028	0.83746
390.000	1.50810	1.45744	-0.48633	0.80365
391.000	1.48637	1.40975	-0.48633	0.75989
392.000	1.47649	1.40578	-0.52784	0.72806
393.000	1.43303	1.38991	-0.51401	0.72210
394.000	1.42117	1.34817	-0.56540	0.65248
395.000	1.41525	1.31240	-0.59506	0.61468
396.000	1.33424	1.28859	-0.65831	0.60274
397.000	1.30657	1.29457	-0.74529	0.60074
398.000	1.30262	1.24487	-0.73145	0.54107
399.000	1.23939	1.24689	-0.77494	0.58084
400.000	1.20382	1.26877	-0.81052	0.58283
401.000	1.16627	1.23300	-0.84214	0.55100
402.000	1.17022	1.22306	-0.82040	0.55299
403.000	1.19789	1.23697	-0.82435	0.56492
404.000	1.25717	1.26477	-0.80656	0.59476
405.000	1.26112	1.21507	-0.77296	0.58681
406.000	1.22951	1.25087	-0.72750	0.65047
407.000	1.29669	1.24885	-0.73540	0.55698
408.000	1.27298	1.26476	-0.66424	0.63257
409.000	1.32238	1.30251	-0.69587	0.65047
410.000	1.33226	1.23889	-0.67808	0.66440
411.000	1.31843	1.31444	-0.69785	0.61268
412.000	1.32831	1.32239	-0.68401	0.66042
413.000	1.31250	1.25878	-0.70971	0.61665
414.000	1.27891	1.26079	-0.70773	0.58284
415.000	1.33028	1.24486	-0.69982	0.60074
416.000	1.28879	1.28464	-0.72947	0.60273
417.000	1.31052	1.21703	-0.71959	0.59080
418.000	1.31645	1.24089	-0.73936	0.57886
419.000	1.28879	1.23295	-0.74529	0.50725
420.000	1.30460	1.28860	-0.70575	0.55698
421.000	1.32238	1.22100	-0.66622	0.56892
422.000	1.27693	1.31247	-0.70971	0.59279
423.000	1.31843	1.32239	-0.68796	0.61268
424.000	1.30064	1.27469	-0.69192	0.59677
425.000	1.34807	1.26274	-0.67215	0.57489
426.000	1.29867	1.28264	-0.64645	0.64053
427.000	1.30460	1.29656	-0.65634	0.59080
428.000	1.30855	1.27071	-0.68203	0.62263
429.000	1.28286	1.28464	-0.66820	0.61467
430.000	1.34016	1.26672	-0.66424	0.51720
431.000	1.30855	1.23493	-0.72157	0.57687
432.000	1.32040	1.25480	-0.69389	0.57091
433.000	1.29472	1.24487	-0.70575	0.55300
434.000	1.31448	1.26077	-0.72552	0.62063
435.000	1.34412	1.27467	-0.72354	0.60074
436.000	1.30460	1.29854	-0.70180	0.64450
437.000	1.31250	1.27270	-0.68006	0.54505
438.000	1.25717	1.24290	-0.72947	0.60074
439.000	1.28484	1.23891	-0.65436	0.56494
440.000	1.31645	1.31842	-0.68796	0.53312
441.000	1.28484	1.25283	-0.74924	0.56294
442.000	1.28879	1.26674	-0.68796	0.52317
443.000	1.29472	1.30252	-0.69192	0.53510
444.000	1.30460	1.29656	-0.72157	0.54107
445.000	1.29274	1.28463	-0.73145	0.53709
446.000	1.32831	1.24684	-0.69982	0.55897
447.000	1.32831	1.30449	-0.69982	0.58682
448.000	1.31250	1.26872	-0.70180	0.54505
449.000	1.31645	1.29257	-0.65831	0.55301
450.000	1.29669	1.25879	-0.69192	0.61069
451.000	1.33226	1.25281	-0.65041	0.56296
452.000	1.30064	1.24487	-0.65436	0.55500
453.000	1.33226	1.21305	-0.70575	0.59676
454.000	1.30657	1.28065	-0.70773	0.55499
455.000	1.29867	1.30451	-0.68401	0.53510
456.000	1.35597	1.28261	-0.71959	0.55499
457.000	1.32436	1.28263	-0.72157	0.52118
458.000	1.31645	1.22101	-0.72750	0.48736
459.000	1.32831	1.27666	-0.73145	0.52913
460.000	1.26903	1.22302	-0.67808	0.56693
461.000	1.28286	1.24488	-0.68401	0.50925
462.000	1.30855	1.24884	-0.63459	0.48936
463.000	1.29867	1.27072	-0.70378	0.50725
464.000	1.28879	1.27271	-0.71564	0.44758
465.000	1.34214	1.23292	-0.70378	0.49532
466.000	1.34016	1.26274	-0.65436	0.46151
467.000	1.31448	1.28661	-0.70378	0.48935
468.000	1.33819	1.24286	-0.64645	0.45952
469.000	1.32040	1.23691	-0.64250	0.43963
470.000	1.33819	1.20907	-0.66029	0.49731
471.000	1.32436	1.26275	-0.65634	0.38393
472.000	1.33424	1.28859	-0.61087	0.43963
473.000	1.34807	1.22497	-0.62075	0.42770
474.000	1.33424	1.32039	-0.67017	0.43565
475.000	1.33819	1.26274	-0.64250	0.45156
476.000	1.34807	1.23093	-0.62668	0.47345
477.000	1.35202	1.26870	-0.63459	0.43963
478.000	1.37178	1.22694	-0.62273	0.48140
479.000	1.35399	1.22099	-0.62273	0.46748
480.000	1.32040	1.25480	-0.62866	0.44958
481.000	1.30855	1.22300	-0.63855	0.45952
482.000	1.29867	1.23493	-0.61087	0.53511
483.000	1.29076	1.22301	-0.62273	0.47544
484.000	1.32436	1.21305	-0.64052	0.47146
485.000	1.33424	1.21305	-0.59703	0.50528
486.000	1.33028	1.25877	-0.58122	0.50329
487.000	1.31843	1.21305	-0.61482	0.51721
488.000	1.33028	1.24486	-0.65436	0.45952
489.000	1.31250	1.21902	-0.61878	0.50726
490.000	1.32436	1.23691	-0.60099	0.47942
491.000	1.32040	1.23890	-0.61482	0.52914
492.000	1.33424	1.25479	-0.63657	0.49334
493.000	1.32633	1.25877	-0.63855	0.52516
494.000	1.31645	1.22697	-0.62075	0.51522
495.000	1.26112	1.25483	-0.64250	0.46151
496.000	1.28681	1.23494	-0.62471	0.52318
497.000	1.28088	1.22898	-0.64843	0.45952
498.000	1.27100	1.23892	-0.64448	0.42968
499.000	1.30657	1.26077	-0.62471	0.47743
500.000	1.27891	1.20114	-0.63459	0.46947
501.000	1.23939	1.22900	-0.57529	0.42571
502.000	1.25717	1.21507	-0.65436	0.49533
503.000	1.28286	1.23096	-0.63657	0.40183
504.000	1.24927	1.20116	-0.63459	0.43764
505.000	1.27891	1.19518	-0.61680	0.47743
506.000	1.29274	1.22102	-0.60692	0.48339
507.000	1.32040	1.21703	-0.61482	0.45555
508.000	1.29076	1.21506	-0.62668	0.49931
509.000	1.24532	1.22700	-0.63657	0.51920
510.000	1.26705	1.24091	-0.64250	0.47543
511.000	1.25717	1.29459	-0.65041	0.51323
512.000	1.28879	1.22102	-0.59901	0.48340
513.000	1.27891	1.19319	-0.61878	0.51721
514.000	1.28484	1.20909	-0.63064	0.49533
515.000	1.28484	1.22301	-0.65436	0.50328
516.000	1.24729	1.23297	-0.67017	0.43764
517.000	1.28088	1.23693	-0.58320	0.51125
518.000	1.25717	1.17332	-0.64052	0.52516
519.000	1.29669	1.20511	-0.63855	0.49135
520.000	1.27693	1.17729	-0.61087	0.49732
521.000	1.26705	1.15940	-0.62866	0.50130
522.000	1.27100	1.22302	-0.62866	0.51323
523.000	1.23148	1.18327	-0.64448	0.55301
524.000	1.29867	1.19318	-0.60296	0.60473
525.000	1.29472	1.19517	-0.62866	0.60473
526.000	1.27891	1.18325	-0.56738	0.53313
527.000	1.27496	1.18325	-0.60889	0.57092
528.000	1.31448	1.22101	-0.60692	0.63457
529.000	1.29274	1.21903	-0.64052	0.62064
530.000	1.29669	1.22300	-0.64250	0.64053
531.000	1.28681	1.21506	-0.61087	0.57490
532.000	1.30064	1.27270	-0.62471	0.59081
533.000	1.33028	1.25480	-0.59703	0.60076
534.000	1.31052	1.24089	-0.55750	0.54506
535.000	1.34214	1.29654	-0.61482	0.64650
536.000	1.33819	1.19913	-0.56936	0.59280
537.000	1.32040	1.26275	-0.59308	0.60672
538.000	1.34412	1.25280	-0.62471	0.65247
539.000	1.35399	1.22099	-0.61087	0.58285
540.000	1.33819	1.18521	-0.65436	0.57290
541.000	1.30855	1.16932	-0.65041	0.53113
542.000	1.31645	1.19914	-0.69785	0.53510
543.000	1.33819	1.17328	-0.68006	0.54306
544.000	1.30855	1.17131	-0.68994	0.45355
545.000	1.28681	1.15740	-0.66029	0.50129
546.000	1.31052	1.18920	-0.71564	0.56494
547.000	1.33226	1.18323	-0.69192	0.53709
548.000	1.32040	1.16136	-0.67808	0.50925
549.000	1.28879	1.17529	-0.68203	0.52118
550.000	1.27891	1.13951	-0.68599	0.51919
551.000	1.32831	1.11166	-0.70378	0.46747
552.000	1.31052	1.18523	-0.67413	0.47145
553.000	1.30460	1.17330	-0.72157	0.52515
554.000	1.29274	1.14150	-0.68994	0.48935
555.000	1.27100	1.13554	-0.68599	0.48737
556.000	1.31052	1.15143	-0.67808	0.56295
557.000	1.25124	1.17531	-0.72750	0.52118
558.000	1.31052	1.13552	-0.71761	0.54902
559.000	1.32633	1.17528	-0.72750	0.54505
560.000	1.25322	1.15145	-0.70575	0.54505
561.000	1.28286	1.13355	-0.67215	0.52516
562.000	1.31052	1.13751	-0.74133	0.55499
563.000	1.23741	1.17929	-0.69587	0.48140
564.000	1.29867	1.12161	-0.71366	0.57687
565.000	1.24927	1.13157	-0.71564	0.52516
566.000	1.29867	1.13354	-0.69587	0.44360
567.000	1.29076	1.08384	-0.70971	0.49930
568.000	1.31448	1.14347	-0.68796	0.47941
569.000	1.24729	1.15344	-0.70378	0.49731
570.000	1.27298	1.14548	-0.69389	0.50726
571.000	1.27298	1.14747	-0.70971	0.52516
572.000	1.26705	1.15145	-0.71168	0.51919
573.000	1.29867	1.15143	-0.72354	0.47742
574.000	1.28088	1.12758	-0.76110	0.41774
575.000	1.28286	1.17331	-0.65831	0.48538
576.000	1.25322	1.11964	-0.73540	0.39586
577.000	1.27693	1.10770	-0.66029	0.46947
578.000	1.34016	1.09972	-0.67413	0.45156
579.000	1.27693	1.09975	-0.69587	0.44559
580.000	1.23544	1.11170	-0.70180	0.51322
581.000	1.27496	1.09180	-0.69785	0.45952
582.000	1.28681	1.11168	-0.71564	0.44957
583.000	1.29076	1.11764	-0.66820	0.46549
584.000	1.33424	1.12756	-0.70971	0.44161
585.000	1.33621	1.08978	-0.70575	0.41973
586.000	1.29669	1.17529	-0.68994	0.40581
587.000	1.30657	1.10173	-0.71959	0.48736
588.000	1.36190	1.16532	-0.67017	0.45355
589.000	1.31250	1.11962	-0.70971	0.43564
590.000	1.34016	1.12557	-0.68796	0.39188
591.000	1.32831	1.10172	-0.68006	0.35807
592.000	1.34412	1.15141	-0.73540	0.37796
593.000	1.35992	1.11959	-0.70773	0.36602
594.000	1.32633	1.12557	-0.72750	0.37398
595.000	1.31843	1.10967	-0.70378	0.40183
596.000	1.31052	1.12956	-0.72157	0.33420
597.000	1.29076	1.09378	-0.69192	0.29242
598.000	1.30657	1.14149	-0.69982	0.38989
599.000	1.33226	1.12160	-0.71168	0.31430
600.000	1.31052	1.09576	-0.70971	0.37000
601.000	1.33621	1.10768	-0.69192	0.38194
602.000	1.27100	1.16934	-0.69785	0.34215
603.000	1.35399	1.13351	-0.67413	0.36006
604.000	1.29669	1.08384	-0.68006	0.32027
605.000	1.27100	1.15145	-0.68006	0.33420
606.000	1.28484	1.17530	-0.65831	0.40183
607.000	1.25915	1.12958	-0.66622	0.41178
608.000	1.27100	1.11963	-0.64843	0.45952
609.000	1.29076	1.15740	-0.69192	0.44758
610.000	1.28484	1.10770	-0.61087	0.45356
611.000	1.30657	1.07986	-0.63855	0.44958
612.000	1.26705	1.15145	-0.62668	0.50527
613.000	1.26112	1.14151	-0.64843	0.46151
614.000	1.28286	1.11764	-0.64052	0.48936
615.000	1.27298	1.09379	-0.62273	0.51124
616.000	1.28088	1.10372	-0.62273	0.48339
617.000	1.29669	1.09974	-0.63064	0.52318
618.000	1.24532	1.06994	-0.64250	0.53113
619.000	1.25717	1.13157	-0.68401	0.50527
620.000	1.24136	1.11965	-0.63459	0.49135
621.000	1.31052	1.12757	-0.61680	0.55301
622.000	1.27298	1.17133	-0.63064	0.50925
623.000	1.30262	1.13354	-0.61482	0.48936
624.000	1.30262	1.07787	-0.62471	0.49931
625.000	1.30064	1.11366	-0.63262	0.51323
626.000	1.30460	1.11366	-0.64052	0.51721
627.000	1.28286	1.15144	-0.64052	0.51920
628.000	1.26310	1.09976	-0.60099	0.45952
629.000	1.27891	1.11764	-0.66227	0.50527
630.000	1.26310	1.05204	-0.59308	0.45555
631.000	1.24532	1.09579	-0.65634	0.45753
632.000	1.24927	1.12561	-0.68796	0.47543
633.000	1.28286	1.10571	-0.63064	0.41775
634.000	1.29076	1.10173	-0.64448	0.43963
635.000	1.25717	1.14151	-0.67215	0.46151
636.000	1.30064	1.07787	-0.63262	0.48737
637.000	1.26705	1.12361	-0.63064	0.50129
638.000	1.31645	1.09178	-0.67610	0.44758
639.000	1.27891	1.09577	-0.61482	0.44361
640.000	1.25915	1.11169	-0.64448	0.40183
641.000	1.24136	1.12362	-0.64052	0.48737
642.000	1.26705	1.12759	-0.63262	0.51323
643.000	1.24729	1.07590	-0.60692	0.52318
644.000	1.28484	1.08185	-0.62668	0.53113
645.000	1.32040	1.09377	-0.61087	0.47942
646.000	1.30657	1.07787	-0.64448	0.54307
647.000	1.28484	1.07986	-0.62866	0.53511
648.000	1.26705	1.08981	-0.66622	0.52715
649.000	1.32238	1.11365	-0.58122	0.47146
650.000	1.32831	1.13750	-0.65436	0.47742
651.000	1.31448	1.06991	-0.62075	0.50527
652.000	1.33424	1.09774	-0.60296	0.47146
653.000	1.32040	1.11166	-0.61087	0.53113
654.000	1.29274	1.10770	-0.65634	0.48140
655.000	1.36190	1.08778	-0.63262	0.49533
656.000	1.35399	1.14743	-0.65041	0.50527
657.000	1.36190	1.08580	-0.60099	0.48737
658.000	1.33621	1.12557	-0.65041	0.48538
659.000	1.32238	1.12359	-0.65634	0.40979
660.000	1.35004	1.15141	-0.66820	0.47941
661.000	1.34016	1.09773	-0.69389	0.43167
662.000	1.33424	1.12756	-0.65436	0.42968
663.000	1.33621	1.16931	-0.66227	0.46350
664.000	1.32040	1.03810	-0.72750	0.39387
665.000	1.31250	1.08582	-0.64843	0.39786
666.000	1.36585	1.07386	-0.71366	0.42968
667.000	1.36190	1.08977	-0.66227	0.47742
668.000	1.35202	1.06393	-0.68599	0.39984
669.000	1.38166	1.10169	-0.67215	0.40183
670.000	1.37375	1.09971	-0.73145	0.44360
671.000	1.40339	1.12355	-0.71168	0.40183
672.000	1.37178	1.11363	-0.72750	0.41177
673.000	1.36387	1.12953	-0.68401	0.39785
674.000	1.37178	1.08181	-0.72354	0.36801
675.000	1.36980	1.18321	-0.67808	0.38194
676.000	1.35004	1.11364	-0.68203	0.38791
677.000	1.36387	1.13152	-0.71366	0.34613
678.000	1.38363	1.10567	-0.69389	0.38592
679.000	1.38561	1.14940	-0.73738	0.37796
680.000	1.36190	1.13351	-0.68994	0.38393
681.000	1.36190	1.15538	-0.71168	0.40780
682.000	1.37968	1.14145	-0.69192	0.38592
683.000	1.35399	1.12159	-0.69389	0.40183
684.000	1.38758	1.14742	-0.69389	0.43366
685.000	1.37573	1.11760	-0.68796	0.37398
686.000	1.38363	1.10169	-0.66029	0.40780
687.000	1.38956	1.11759	-0.67017	0.42570
688.000	1.38561	1.09970	-0.68994	0.37796
689.000	1.35795	1.08381	-0.70971	0.39785
690.000	1.34214	1.10569	-0.69982	0.44957
691.000	1.36783	1.08380	-0.68994	0.45156
692.000	1.31448	1.01623	-0.72354	0.42371
693.000	1.33424	1.02616	-0.68203	0.38990
694.000	1.34807	1.08779	-0.75715	0.43166
695.000	1.35004	1.07387	-0.70575	0.41376
696.000	1.34609	1.08580	-0.70773	0.37000
697.000	1.36980	1.08977	-0.66227	0.39587
698.000	1.36585	1.06591	-0.71959	0.38591
699.000	1.36387	1.03808	-0.72750	0.33618
700.000	1.37178	1.03012	-0.69982	0.34016
701.000	1.37771	1.02018	-0.73540	0.30635
702.000	1.39944	0.99631	-0.71564	0.32226
703.000	1.35004	1.01025	-0.75319	0.34414
704.000	1.36190	1.06393	-0.70575	0.36602
705.000	1.38363	1.02614	-0.65634	0.30237
706.000	1.36980	1.01024	-0.78877	0.29441
707.000	1.36387	1.05796	-0.75319	0.27253
708.000	1.40734	1.04800	-0.69587	0.30038
709.000	1.42117	1.05396	-0.70378	0.25065
710.000	1.39549	1.08379	-0.75517	0.33220
711.000	1.41525	1.07782	-0.74529	0.29242
712.000	1.36387	1.04205	-0.72750	0.32226
713.000	1.38166	1.07982	-0.72552	0.32823
714.000	1.36387	1.08381	-0.77296	0.26457
715.000	1.43896	1.09968	-0.71959	0.33817
716.000	1.40142	1.10963	-0.70971	0.30237
717.000	1.38166	1.12555	-0.69785	0.28646
718.000	1.41129	1.08776	-0.71168	0.30635
719.000	1.42908	1.10167	-0.73540	0.30038
720.000	1.38561	1.11759	-0.71959	0.35011
721.000	1.35004	1.09574	-0.69785	0.34215
722.000	1.39549	1.12554	-0.78087	0.32027
723.000	1.42513	1.06589	-0.72552	0.26855
724.000	1.44291	1.04997	-0.71168	0.32027
725.000	1.43303	1.04998	-0.70180	0.29043
726.000	1.42710	1.13348	-0.70180	0.30635
727.000	1.42908	1.06191	-0.70180	0.32624
728.000	1.36783	1.11959	-0.73343	0.32823
729.000	1.42117	1.09173	-0.70971	0.28049
730.000	1.40537	1.09373	-0.73738	0.33419
731.000	1.40339	1.09969	-0.73540	0.30635
732.000	1.38166	1.09175	-0.71564	0.33817
733.000	1.37968	1.08380	-0.65831	0.34613
734.000	1.41525	1.09372	-0.70180	0.31033
735.000	1.43896	1.06787	-0.72947	0.29839
736.000	1.41525	1.12553	-0.71761	0.21882
737.000	1.43303	1.11757	-0.67808	0.28049
738.000	1.41525	1.10963	-0.70971	0.25463
739.000	1.40932	1.09770	-0.65831	0.26657
740.000	1.42710	1.15137	-0.68203	0.29839
741.000	1.40339	1.12156	-0.69785	0.22280
742.000	1.43303	1.05594	-0.72354	0.24269
743.000	1.40339	1.05993	-0.64645	0.31232
744.000	1.43500	1.11359	-0.67808	0.30834
745.000	1.47057	1.11755	-0.64448	0.31630
746.000	1.40537	1.11759	-0.71959	0.25264
747.000	1.44488	1.10961	-0.64645	0.29442
748.000	1.44488	1.14540	-0.70575	0.31430
749.000	1.44488	1.17124	-0.65831	0.27253
750.000	1.44488	1.10564	-0.67017	0.34812
751.000	1.42710	1.13348	-0.64448	0.31431
752.000	1.37178	1.15736	-0.63657	0.34813
753.000	1.41722	1.14740	-0.67215	0.30635
754.000	1.40734	1.11758	-0.63459	0.32227
755.000	1.42513	1.12155	-0.65238	0.34812
756.000	1.39549	1.12157	-0.68599	0.38592
757.000	1.42710	1.11956	-0.71564	0.32027
758.000	1.41920	1.12752	-0.70180	0.35409
759.000	1.41327	1.14740	-0.67808	0.35608
760.000	1.43500	1.12552	-0.70971	0.34215
761.000	1.37375	1.11164	-0.65238	0.32425
762.000	1.35992	1.14544	-0.69982	0.38791
763.000	1.40339	1.03806	-0.71168	0.36204
764.000	1.40537	1.08578	-0.67017	0.33221
765.000	1.39944	1.10765	-0.67017	0.38592
766.000	1.39549	1.09970	-0.67808	0.37796
767.000	1.39351	1.06988	-0.68006	0.37398
768.000	1.41327	1.08975	-0.65634	0.41178
769.000	1.40339	1.05993	-0.68006	0.35807
770.000	1.37771	1.07982	-0.71564	0.36403
771.000	1.38363	1.06193	-0.74726	0.43166
772.000	1.41129	1.03607	-0.68203	0.39586
773.000	1.41525	1.10366	-0.68599	0.34812
774.000	1.40537	1.07782	-0.64843	0.38194
775.000	1.38561	1.06392	-0.74726	0.38591
776.000	1.44488	1.04202	-0.72750	0.39586
777.000	1.41920	1.06390	-0.70971	0.30635
778.000	1.43105	1.04401	-0.69389	0.34016
779.000	1.38956	1.08976	-0.75715	0.29441
780.000	1.41327	1.09770	-0.72552	0.35409
781.000	1.38363	1.13350	-0.70971	0.37398
782.000	1.43303	1.05196	-0.69192	0.28447
783.000	1.44093	1.08974	-0.70378	0.34414
784.000	1.44093	1.10564	-0.67017	0.37199
785.000	1.43896	1.07383	-0.71168	0.32823
786.000	1.44883	1.09967	-0.74726	0.33220
787.000	1.43698	1.08377	-0.75517	0.33817
788.000	1.36585	1.12953	-0.74133	0.30833
789.000	1.44686	1.03407	-0.76308	0.37994
790.000	1.42117	1.04998	-0.75912	0.33817
791.000	1.41327	1.06191	-0.69389	0.35409
792.000	1.41722	1.05595	-0.72750	0.37398
793.000	1.40932	1.06788	-0.72947	0.35409
794.000	1.41327	1.05993	-0.74529	0.35011
795.000	1.44883	1.08973	-0.72947	0.36801
796.000	1.45081	1.01418	-0.74726	0.36602
797.000	1.42315	1.03209	-0.73540	0.37000
798.000	1.38758	0.98637	-0.72947	0.33419
799.000	1.43500	1.04998	-0.71959	0.35011
800.000	1.43105	1.08576	-0.69982	0.35011
801.000	1.40537	1.03408	-0.75715	0.34812
802.000	1.42315	1.06589	-0.73936	0.35409
803.000	1.44093	0.99629	-0.70180	0.34016
804.000	1.42908	1.05793	-0.70971	0.29640
805.000	1.39154	1.07187	-0.68994	0.29242
806.000	1.40537	0.99034	-0.73738	0.34016
807.000	1.42315	1.05197	-0.68203	0.33619
808.000	1.44686	1.11558	-0.68203	0.32027
809.000	1.45081	1.08377	-0.70180	0.32823
810.000	1.44488	1.09769	-0.69785	0.33420
811.000	1.42315	1.08378	-0.66029	0.34613
812.000	1.44093	1.02810	-0.70575	0.31629
813.000	1.42315	1.11360	-0.63855	0.30237
814.000	1.40734	1.11162	-0.65238	0.32823
815.000	1.45871	1.13346	-0.70971	0.38393
816.000	1.43896	1.12353	-0.67808	0.36205
817.000	1.45674	1.09768	-0.70773	0.31828
818.000	1.44291	1.08973	-0.70575	0.45952
819.000	1.46859	1.13743	-0.69785	0.42570
820.000	1.44291	1.08377	-0.70180	0.43565
821.000	1.43105	1.10962	-0.67610	0.45952
822.000	1.47254	1.10761	-0.63657	0.43366
823.000	1.47254	1.11358	-0.70773	0.42172
824.000	1.46859	1.06586	-0.67413	0.33619
825.000	1.47649	1.10562	-0.70971	0.35807
826.000	1.42117	1.04799	-0.70180	0.37398
827.000	1.44686	1.01418	-0.72947	0.34414
828.000	1.46662	1.04797	-0.72947	0.36403
829.000	1.45674	1.06388	-0.72354	0.40581
830.000	1.44093	0.99033	-0.70971	0.35210
831.000	1.42117	1.04402	-0.72552	0.37796
832.000	1.37375	0.96252	-0.74133	0.36204
833.000	1.44093	1.04003	-0.71564	0.36602
834.000	1.40339	1.01023	-0.73343	0.37398
835.000	1.43698	1.01816	-0.71564	0.36801
836.000	1.41920	1.02414	-0.78284	0.44956
837.000	1.43303	1.07781	-0.69982	0.41376
838.000	1.42908	1.01618	-0.75912	0.37398
839.000	1.44488	1.06389	-0.75122	0.38392
840.000	1.45871	1.02213	-0.78087	0.43564
841.000	1.42710	1.03010	-0.75319	0.42768
842.000	1.44291	1.04600	-0.73738	0.36602
843.000	1.42315	1.06986	-0.78877	0.40779
844.000	1.45674	1.07183	-0.76901	0.44757
845.000	1.46069	1.04400	-0.77296	0.43962
846.000	1.43500	1.04202	-0.74726	0.37597
847.000	1.45871	1.04201	-0.81052	0.44558
848.000	1.43896	1.08974	-0.86388	0.38391
849.000	1.44686	1.04202	-0.78877	0.40182
850.000	1.51206	1.08771	-0.79866	0.42967
851.000	1.45081	1.04997	-0.75319	0.41376
852.000	1.50613	1.05193	-0.77691	0.40182
853.000	1.47649	1.01019	-0.79470	0.39983
854.000	1.52984	1.02011	-0.76703	0.41774
855.000	1.45871	1.00225	-0.82435	0.39784
856.000	1.50218	0.99030	-0.78087	0.38591
857.000	1.46662	0.99230	-0.78087	0.39983
858.000	1.45279	1.00225	-0.77494	0.37000
859.000	1.46662	1.03803	-0.80063	0.38193
860.000	1.48045	1.03007	-0.76308	0.41973
861.000	1.48835	1.00422	-0.76110	0.36602
862.000	1.48637	1.02212	-0.73936	0.38989
863.000	1.47649	1.05393	-0.76901	0.33618
864.000	1.44488	1.00822	-0.77296	0.39586
865.000	1.44883	1.05593	-0.76703	0.46548
866.000	1.41920	1.01221	-0.73540	0.43365
867.000	1.47057	1.04201	-0.74726	0.45752
868.000	1.48045	1.02013	-0.77494	0.41774
869.000	1.49230	0.96843	-0.81052	0.43365
870.000	1.48242	1.02808	-0.76308	0.43365
871.000	1.49625	1.01615	-0.74331	0.48338
872.000	1.47452	1.05195	-0.80459	0.44160
873.000	1.48045	1.04995	-0.75122	0.45752
874.000	1.46266	1.00622	-0.78284	0.42370
875.000	1.46266	0.97242	-0.78680	0.43365
876.000	1.46859	1.01020	-0.74726	0.44758
877.000	1.43500	1.03009	-0.72157	0.42371
878.000	1.48637	1.01814	-0.77494	0.42967
879.000	1.45476	1.02014	-0.76110	0.42569
880.000	1.48835	0.97440	-0.79075	0.43166
881.000	1.46464	0.99231	-0.72750	0.42371
882.000	1.48045	0.97043	-0.71564	0.37199
883.000	1.48637	1.02808	-0.73540	0.42371
884.000	1.43698	1.00425	-0.72552	0.39586
885.000	1.45871	0.97441	-0.75912	0.34215
886.000	1.46662	0.97441	-0.78680	0.31828
887.000	1.46464	1.00026	-0.74133	0.40978
888.000	1.43698	1.00027	-0.77494	0.32822
889.000	1.46859	1.02610	-0.77889	0.29839
890.000	1.43698	0.99232	-0.73936	0.32425
891.000	1.41722	1.00426	-0.78284	0.41972
892.000	1.43896	1.01618	-0.78087	0.38790
893.000	1.40537	0.97841	-0.78087	0.35010
894.000	1.41722	1.03209	-0.77889	0.37596
895.000	1.40734	0.97046	-0.78087	0.38392
896.000	1.42908	0.95454	-0.80459	0.44956
897.000	1.44093	0.91477	-0.73738	0.45354
898.000	1.48242	0.89686	-0.71959	0.48736
899.000	1.54564	0.85309	-0.60692	0.51124
900.000	1.62861	0.91271	-0.41121	0.49336
901.000	1.73725	0.93651	-0.19770	0.50928
902.000	1.99004	1.01588	-0.06524	0.58090
903.000	2.17169	1.06545	0.08699	0.69229
904.000	2.40657	1.15071	0.37958	0.80366
905.000	2.59995	1.20021	0.65041	0.98461
906.000	2.89779	1.33694	0.96864	1.06407
907.000	3.01807	1.40827	1.20382	1.13756
908.000	3.35115	1.49316	1.47254	1.24478
909.000	3.48117	1.57035	1.70762	1.27843
910.000	3.72338	1.62349	2.00584	1.37956
911.000	3.99103	1.77764	2.20722	1.45289
912.000	4.26245	1.78695	2.38486	1.37722
913.000	4.37843	1.79064	2.54471	1.38500
914.000	4.58671	1.87135	2.66900	1.43849
915.000	4.83609	1.96374	2.82680	1.44028
916.000	4.86161	1.98545	2.98258	1.42420
917.000	4.95385	2.05248	3.03187	1.45789
918.000	5.05979	2.10360	3.14817	1.46964
919.000	5.15590	2.13297	3.11663	1.58482
920.000	5.20296	2.14864	3.12846	1.60266
921.000	5.26178	2.14448	3.20336	1.67003
922.000	5.22061	2.15253	3.22306	1.71564
923.000	5.28334	2.19781	3.26839	1.75724
924.000	5.33038	2.15611	3.31962	1.73730
925.000	5.35586	2.09272	3.40828	1.75897
926.000	5.50477	2.17922	3.40237	1.70541
927.000	5.57919	2.20860	3.52056	1.74686
928.000	5.64381	2.18661	3.57373	1.73287
929.000	5.71624	2.26144	3.63084	1.80814
930.000	5.76909	2.31854	3.68400	1.75250
931.000	5.77887	2.38569	3.70763	1.81393
932.000	5.73190	2.38193	3.71156	1.84367
933.000	5.70254	2.36427	3.77062	1.84355
934.000	5.66730	2.36046	3.65053	1.86562
935.000	5.63011	2.40607	3.70369	1.93293
936.000	5.52240	2.32744	3.57767	1.87172
937.000	5.46951	2.33753	3.49495	1.89965
938.000	5.36566	2.27070	3.51071	1.85598
939.000	5.34802	2.21934	3.49298	1.80841
940.000	5.29706	2.14040	3.49692	1.82030
941.000	5.26178	2.14844	3.49889	1.77864
942.000	5.26178	2.12470	3.50283	1.78855
943.000	5.27550	2.02573	3.48314	1.75883
944.000	5.32842	2.03545	3.55207	1.79639
945.000	5.35978	2.05710	3.54813	1.79838
946.000	5.36566	2.02741	3.49889	1.78261
947.000	5.40877	2.06485	3.52056	1.81034
948.000	5.46167	2.09434	3.49298	1.79849
949.000	5.41857	2.11031	3.53435	1.85990
950.000	5.46559	2.10817	3.53631	1.81229
951.000	5.51260	2.19105	3.50283	1.83418
952.000	5.52436	2.15344	3.50874	1.80243
953.000	5.58703	2.25206	3.49495	1.87188
954.000	5.62815	2.22818	3.48511	1.87587
955.000	5.55178	2.20277	3.48117	1.87786
956.000	5.55765	2.26799	3.47723	1.91159
957.000	5.60073	2.24806	3.46738	1.93938
958.000	5.60073	2.22038	3.44965	1.89379
959.000	5.58115	2.28569	3.46344	1.87988
960.000	5.57136	2.22642	3.45556	1.88981
961.000	5.54982	2.29570	3.43783	1.91365
962.000	5.52631	2.27207	3.49298	1.91751
963.000	5.53023	2.28984	3.46147	1.87988
964.000	5.56940	2.22643	3.47329	1.89573
965.000	5.55569	2.27393	3.45556	1.93742
966.000	5.62815	2.29342	3.46935	1.87392
967.000	5.54198	2.23840	3.45359	1.96519
968.000	5.61053	2.25197	3.44768	1.92554
969.000	5.57528	2.20861	3.47329	1.86598
970.000	5.54003	2.25817	3.43980	1.92158
971.000	5.59094	2.23228	3.44965	1.88189
972.000	5.59878	2.23027	3.44768	2.05446
973.000	5.54198	2.17908	3.45359	2.00090
974.000	5.61248	2.22231	3.47132	1.97111
975.000	5.56744	2.22051	3.45950	1.89179
976.000	5.58703	2.22241	3.43192	1.91962
977.000	5.54003	2.18304	3.51268	1.96705
978.000	5.55373	2.24626	3.46541	2.00087
979.000	5.57136	2.18095	3.47329	1.93738
980.000	5.58507	2.23230	3.41419	1.92759
981.000	5.58115	2.24022	3.45753	1.97709
982.000	5.56549	2.22051	3.48708	2.02463
983.000	5.56549	2.25808	3.46344	2.03658
984.000	5.56940	2.21259	3.48117	1.95324
985.000	5.56940	2.19875	3.44177	1.95530
986.000	5.60073	2.25794	3.43586	2.01482
987.000	5.58311	2.22045	3.41419	1.98511
988.000	5.60465	2.25793	3.49298	1.97900
989.000	5.62423	2.23413	3.46541	1.97905
990.000	5.61053	2.19662	3.46935	2.02665
991.000	5.65360	2.24785	3.46147	1.98501
992.000	5.59290	2.27181	3.48314	1.95720
993.000	5.60857	2.26186	3.49692	1.95915
994.000	5.62815	2.24993	3.46935	2.00880
995.000	5.59094	2.27182	3.42601	1.97914
996.000	5.58311	2.22242	3.48117	1.97704
997.000	5.62032	2.26973	3.44177	1.99695
998.000	5.60073	2.26783	3.47132	2.01673
999.000	5.60465	2.25397	3.44965	2.01281
1000.000	5.64577	2.30125	3.47132	1.99888
1001.000	5.67905	2.28136	3.52450	2.05033
1002.000	5.61053	2.31523	3.48314	2.03058
1003.000	5.60073	2.27376	3.46935	2.04846
1004.000	5.59878	2.31528	3.46147	2.01278
1005.000	5.59878	2.27574	3.51662	2.03448
1006.000	5.63011	2.28353	3.47132	1.97309
1007.000	5.60465	2.23816	3.46738	2.02863
1008.000	5.63206	2.28154	3.47723	2.03853
1009.000	5.58899	2.28566	3.48314	1.95125
1010.000	5.58899	2.26985	3.49298	2.02660
1011.000	5.59094	2.32717	3.47526	2.05440
1012.000	5.58115	2.31337	3.44768	2.08619
1013.000	5.61248	2.25790	3.45753	2.01874
1014.000	5.63402	2.24991	3.47920	2.03258
1015.000	5.57724	2.28373	3.45753	2.06634
1016.000	5.60269	2.23026	3.47723	2.11587
1017.000	5.60073	2.31922	3.48904	2.07420
1018.000	5.64185	2.31708	3.46935	2.05243
1019.000	5.63598	2.27164	3.51465	2.04241
1020.000	5.58899	2.33311	3.47526	2.03457
1021.000	5.61248	2.30336	3.48511	2.06429
1022.000	5.58311	2.31929	3.48708	2.08412
1023.000	5.62815	2.25388	3.52253	2.04636
1024.000	5.59878	2.32318	3.46541	2.08814
1025.000	5.62032	2.38239	3.48904	2.04842
1026.000	5.61640	2.31521	3.43586	2.02870
1027.000	5.67709	2.33275	3.53631	2.00865
1028.000	5.62227	2.35274	3.54025	2.02848
1029.000	5.61053	2.38836	3.53828	2.01063
1030.000	5.63011	2.41002	3.47526	1.95920
1031.000	5.67122	2.35847	3.50086	1.98890
1032.000	5.63598	2.41000	3.52253	1.97100
1033.000	5.67318	2.43751	3.52450	1.98091
1034.000	5.62423	2.46736	3.54616	2.06614
1035.000	5.64577	2.42379	3.57767	2.06607
1036.000	5.64185	2.53842	3.54813	2.07010
1037.000	5.61053	2.50299	3.56389	2.02842
1038.000	5.61640	2.54841	3.62887	2.11949
1039.000	5.59486	2.52479	3.59736	2.08982
1040.000	5.59878	2.54454	3.55995	2.09784
1041.000	5.60857	2.60772	3.53631	2.15936
1042.000	5.59094	2.62163	3.51859	2.21690
1043.000	5.62227	2.59976	3.47132	2.22693
1044.000	5.65752	2.65097	3.41813	2.20524
1045.000	5.60269	2.68678	3.47526	2.26261
1046.000	5.62032	2.65311	3.41419	2.30439
1047.000	5.66339	2.72600	3.39252	2.35996
1048.000	5.68101	2.69827	3.28415	2.41574
1049.000	5.76126	2.78676	3.15408	2.39820
1050.000	5.75343	2.82234	3.18759	2.42191
1051.000	5.72799	2.56768	3.11269	2.52321
1052.000	6.13286	1.80339	3.11072	2.32294
1053.000	6.40634	2.76961	3.18365	2.70540
1054.000	6.55077	4.59721	3.12058	4.11289
1055.000	6.82965	7.07692	2.95695	5.79352
1056.000	6.85888	9.58220	2.68281	7.68207
1057.000	6.74192	12.26956	2.25657	9.48800
1058.000	6.59370	14.68919	1.83798	11.53352
1059.000	NaN	NaN	NaN	NaN
1060.000	NaN	NaN	NaN	NaN
1061.000	NaN	NaN	NaN	NaN
1062.000	NaN	NaN	NaN	NaN
1063.000	NaN	NaN	NaN	NaN
1064.000	NaN	NaN	NaN	NaN
1065.000	NaN	NaN	NaN	NaN
1066.000	NaN	NaN	NaN	NaN
1067.000	NaN	NaN	NaN	NaN
1068.000	NaN	NaN	NaN	NaN
1069.000	NaN	NaN	NaN	NaN
1070.000	NaN	NaN	NaN	NaN
1071.000	NaN	NaN	NaN	NaN
1072.000	NaN	NaN	NaN	NaN
1073.000	NaN	NaN	NaN	NaN
1074.000	NaN	NaN	NaN	NaN
1075.000	NaN	NaN	NaN	NaN
1076.000	NaN	NaN	NaN	NaN
1077.000	NaN	NaN	NaN	NaN
1078.000	NaN	NaN	NaN	NaN
1079.000	NaN	NaN	NaN	NaN
1080.000	NaN	NaN	NaN	NaN
1081.000	NaN	NaN	NaN	NaN
1082.000	NaN	NaN	NaN	NaN
1083.000	NaN	NaN	NaN	NaN
1084.000	NaN	NaN	NaN	NaN
1085.000	NaN	NaN	NaN	NaN
1086.000	NaN	NaN	NaN	NaN
1087.000	NaN	NaN	NaN	NaN
1088.000	NaN	NaN	NaN	NaN
1089.000	NaN	NaN	NaN	NaN
1090.000	NaN	NaN	NaN	NaN
1091.000	NaN	NaN	NaN	NaN
1092.000	NaN	NaN	NaN	NaN
1093.000	NaN	NaN	NaN	NaN
1094.000	NaN	NaN	NaN	NaN
1095.000	NaN	NaN	NaN	NaN
1096.000	NaN	NaN	NaN	NaN
1097.000	NaN	NaN	NaN	NaN
1098.000	NaN	NaN	NaN	NaN
1099.000	NaN	NaN	NaN	NaN
1100.000	NaN	NaN	NaN	NaN
1101.000	NaN	NaN	NaN	NaN
1102.000	NaN	NaN	NaN	NaN
1103.000	NaN	NaN	NaN	NaN
1104.000	NaN	NaN	NaN	NaN
1105.000	NaN	NaN	NaN	NaN
1106.000	NaN	NaN	NaN	NaN
1107.000	NaN	NaN	NaN	NaN
1108.000	NaN	NaN	NaN	NaN
1109.000	NaN	NaN	NaN	NaN
1110.000	NaN	NaN	NaN	NaN
1111.000	NaN	NaN	NaN	NaN
1112.000	NaN	NaN	NaN	NaN
1113.000	NaN	NaN	NaN	NaN
1114.000	NaN	NaN	NaN	NaN
1115.000	NaN	NaN	NaN	NaN
1116.000	NaN	NaN	NaN	NaN
1117.000	NaN	NaN	NaN	NaN
1118.000	NaN	NaN	NaN	NaN
1119.000	NaN	NaN	NaN	NaN
1120.000	NaN	NaN	NaN	NaN
1121.000	NaN	NaN	NaN	NaN
1122.000	NaN	NaN	NaN	NaN
1123.000	NaN	NaN	NaN	NaN
1124.000	NaN	NaN	NaN	NaN
1125.000	NaN	NaN	NaN	NaN
1126.000	NaN	NaN	NaN	NaN
1127.000	NaN	NaN	NaN	NaN
1128.000	NaN	NaN	NaN	NaN
1129.000	NaN	NaN	NaN	NaN
1130.000	NaN	NaN	NaN	NaN
1131.000	NaN	NaN	NaN	NaN
1132.000	NaN	NaN	NaN	NaN
1133.000	NaN	NaN	NaN	NaN
1134.000	NaN	NaN	NaN	NaN
1135.000	NaN	NaN	NaN	NaN
1136.000	NaN	NaN	NaN	NaN
1137.000	NaN	NaN	NaN	NaN
1138.000	NaN	NaN	NaN	NaN
1139.000	NaN	NaN	NaN	NaN
1140.000	NaN	NaN	NaN	NaN
1141.000	NaN	NaN	NaN	NaN
1142.000	NaN	NaN	NaN	NaN
1143.000	NaN	NaN	NaN	NaN
1144.000	NaN	NaN	NaN	NaN
1145.000	NaN	NaN	NaN	NaN
1146.000	NaN	NaN	NaN	NaN
1147.000	NaN	NaN	NaN	NaN
1148.000	NaN	NaN	NaN	NaN
1149.000	NaN	NaN	NaN	NaN
1150.000	NaN	NaN	NaN	NaN
1151.000	NaN	NaN	NaN	NaN
1152.000	NaN	NaN	NaN	NaN
1153.000	NaN	NaN	NaN	NaN
1154.000	NaN	NaN	NaN	NaN
1155.000	NaN	NaN	NaN	NaN
1156.000	NaN	NaN	NaN	NaN
1157.000	NaN	NaN	NaN	NaN
1158.000	NaN	NaN	NaN	NaN
1159.000	NaN	NaN	NaN	NaN
1160.000	NaN	NaN	NaN	NaN
1161.000	NaN	NaN	NaN	NaN
1162.000	NaN	NaN	-0.44877	12.50189
1163.000	NaN	NaN	1.43105	11.87904
1164.000	6.41024	13.32834	3.21321	10.88709
1165.000	7.05563	13.00236	3.31568	10.31226
1166.000	7.67980	12.32211	3.22701	9.83563
1167.000	7.59435	11.70006	3.27233	9.31957
1168.000	7.59241	11.16965	3.29204	8.76732
1169.000	7.47000	10.56206	3.27430	8.29351
1170.000	7.35335	9.95153	3.26839	7.79895
1171.000	7.30862	9.47323	3.32159	7.37898
1172.000	7.19773	8.83683	3.23292	6.97489
1173.000	7.11987	8.33264	3.22898	6.55575
1174.000	7.04589	7.74742	3.30977	6.10790
1175.000	6.98357	7.28263	3.32553	5.74233
1176.000	6.87252	6.73953	3.35115	5.35853
1177.000	6.86083	6.32443	3.37282	4.94472
1178.000	6.76142	5.87256	3.40828	4.54810
1179.000	6.72047	5.45240	3.41419	4.16899
1180.000	6.65222	5.14557	3.46147	3.85261
1181.000	6.63661	4.77308	3.45753	3.54215
1182.000	6.54492	4.48924	3.53828	3.15201
1183.000	6.50784	4.19478	3.54616	2.92229
1184.000	6.58784	4.08008	3.50874	2.67479
1185.000	6.51760	3.79934	3.52056	2.56181
1186.000	6.45905	3.66592	3.53631	2.45673
1187.000	6.37314	3.53656	3.55207	2.20295
1188.000	6.38291	3.35132	3.50874	2.07812
1189.000	6.33995	3.32007	3.52450	2.00273
1190.000	6.26963	3.09381	3.48904	2.00082
1191.000	6.22275	2.98365	3.52056	1.94324
1192.000	6.21493	2.87520	3.49298	1.91156
1193.000	6.21688	2.84955	3.53828	1.84601
1194.000	6.22861	2.95009	3.56586	1.96893
1195.000	6.24033	2.84942	3.61706	1.85577
1196.000	6.30479	3.18626	3.62493	2.07390
1197.000	6.24424	3.20241	3.61509	2.13142
1198.000	6.27940	3.35987	3.67613	2.29978
1199.000	6.32042	3.50344	3.65250	2.39498
1200.000	6.32628	3.51916	3.63281	2.43269
1201.000	6.30089	3.56267	3.62887	2.45846
1202.000	6.32823	3.59202	3.61903	2.48029
1203.000	6.34580	3.56236	3.61706	2.48822
1204.000	6.29698	3.60012	3.56389	2.49431
1205.000	6.38486	3.58966	3.57373	2.48834
1206.000	6.35362	3.62533	3.58752	2.54973
1207.000	6.39657	3.57579	3.60918	2.51004
1208.000	6.32628	3.58613	3.57767	2.56165
1209.000	6.34190	3.60177	3.59146	2.51801
1210.000	6.35362	3.54064	3.55010	2.50822
1211.000	6.40243	3.61317	3.57176	2.52005
1212.000	6.32042	3.53102	3.57964	2.56164
1213.000	6.33018	3.55852	3.56389	2.47053
1214.000	6.34580	3.53478	3.54025	2.45077
1215.000	6.38486	3.53648	3.54616	2.39129
1216.000	6.36338	3.53269	3.54813	2.40318
1217.000	6.37900	3.50107	3.52450	2.38937
1218.000	6.31456	3.45619	3.53238	2.42502
1219.000	6.39853	3.56790	3.54419	2.39328
1220.000	6.39462	3.59353	3.59343	2.43081
1221.000	6.36924	3.56023	3.56979	2.40907
1222.000	6.35166	3.52489	3.52647	2.39531
1223.000	6.33995	3.55649	3.50874	2.47464
1224.000	6.36729	3.60357	3.54025	2.49041
1225.000	6.35362	3.64502	3.50283	2.48258
1226.000	6.39657	3.57579	3.52253	2.54000
1227.000	6.35752	3.60757	3.51465	2.48255
1228.000	6.36924	3.58386	3.50480	2.47465
1229.000	6.36924	3.59764	3.54813	2.46859
1230.000	6.33409	3.58016	3.51268	2.51030
1231.000	6.36143	3.59967	3.49495	2.47071
1232.000	6.37900	3.61136	3.52056	2.48253
1233.000	6.36338	3.57011	3.49692	2.47467
1234.000	6.39462	3.67032	3.54222	2.50626
1235.000	6.32042	3.58026	3.48511	2.49848
1236.000	6.35752	3.64302	3.51465	2.49841
1237.000	6.35752	3.60757	3.53041	2.53007
1238.000	6.37119	3.63702	3.50677	2.52815
1239.000	6.38876	3.65068	3.55404	2.52803
1240.000	6.46100	3.69938	3.50086	2.51232
1241.000	6.49418	3.72669	3.48511	2.52425
1242.000	6.51760	3.77769	3.46541	2.53818
1243.000	6.45709	3.71122	3.41222	2.44317
1244.000	6.30089	3.68871	3.32947	2.43942
1245.000	6.14067	3.70362	3.20533	2.45360
1246.000	5.99601	3.71053	3.04369	2.45001
1247.000	5.78083	3.75729	2.82680	2.37908
1248.000	5.53807	3.73915	2.63941	2.24850
1249.000	5.28334	3.70127	2.51905	2.25466
1250.000	4.95581	3.59854	2.26841	2.23920
1251.000	4.65153	3.55076	2.03151	2.21374
1252.000	4.40987	3.56775	1.78268	2.23193
1253.000	4.17199	3.49177	1.60688	2.22419
1254.000	3.97136	3.41552	1.46464	2.28589
1255.000	3.79621	3.27972	1.34609	2.35749
1256.000	3.71747	3.34531	1.14651	2.27426
1257.000	3.62296	3.38919	1.06548	2.30213
1258.000	3.53631	3.41128	0.90144	2.31416
1259.000	3.47723	3.41941	0.91527	2.40947
1260.000	3.42404	3.33648	0.85005	2.38767
1261.000	3.39646	3.29303	0.85203	2.32213
1262.000	3.41025	3.29299	0.78087	2.29636
1263.000	3.39449	3.26533	0.70575	2.26462
1264.000	3.41419	3.29495	0.63262	2.23287
1265.000	3.37873	3.35049	0.59703	2.21501
1266.000	3.26445	3.33505	0.55750	2.22496
1267.000	3.30583	3.32897	0.51994	2.17134
1268.000	3.25657	3.30736	0.45075	2.17533
1269.000	3.20336	3.35504	0.44284	2.14553
1270.000	3.20139	3.33525	0.39539	2.16740
1271.000	3.09692	3.23461	0.36376	2.17138
1272.000	3.08509	3.29602	0.31434	2.12173
1273.000	3.05355	3.26642	0.30643	2.14755
1274.000	3.04172	3.33378	0.25503	2.13366
1275.000	3.06341	3.33173	0.28073	2.14756
1276.000	3.03384	3.35954	0.29852	2.23894
1277.000	3.00624	3.32795	0.26689	2.22702
1278.000	3.05552	3.32384	0.23526	2.11578
1279.000	3.11860	3.31176	0.25108	2.22107
1280.000	3.09889	3.30192	0.25305	2.24689
1281.000	3.07721	3.28417	0.27876	2.30846
1282.000	3.09101	3.33560	0.24910	2.32237
1283.000	3.12649	3.26818	0.19968	2.28066
1284.000	3.13634	3.32952	0.23131	2.23299
1285.000	3.16394	3.33933	0.18584	2.22902
1286.000	3.15605	3.29778	0.17200	2.22108
1287.000	3.08115	3.37127	0.17200	2.21710
1288.000	3.11466	3.37710	0.13641	2.21115
1289.000	3.10678	3.34941	0.10874	2.20321
1290.000	3.08312	3.37918	0.12455	2.19526
1291.000	3.09889	3.33162	0.11664	2.23499
1292.000	3.09495	3.35539	0.07513	2.17738
1293.000	3.09101	3.37520	0.12653	2.26081
1294.000	3.09495	3.38311	0.05733	2.25287
1295.000	3.06735	3.33172	0.05733	2.19924
1296.000	3.02792	3.36154	0.09490	2.19129
1297.000	3.09298	3.38707	0.09292	2.17341
1298.000	3.03975	3.30012	0.08106	2.24890
1299.000	2.98849	3.29038	0.05338	2.21711
1300.000	2.99046	3.26661	0.08699	2.20122
1301.000	2.99441	3.29036	0.05733	2.21513
1302.000	2.94709	3.26278	0.09490	2.25088
1303.000	3.03384	3.28232	0.05931	2.27075
1304.000	3.02201	3.28434	0.07908	2.20519
1305.000	3.00229	3.29034	0.02570	2.19725
1306.000	3.06144	3.27036	0.02768	2.28266
1307.000	3.05552	3.28226	0.05733	2.15553
1308.000	3.01807	3.27049	0.08897	2.19725
1309.000	3.03384	3.30212	0.01186	2.21513
1310.000	2.97075	3.26073	0.04152	2.20321
1311.000	3.03778	3.30013	0.02372	2.22307
1312.000	3.01018	3.24873	0.03954	2.18930
1313.000	3.03581	3.28034	0.00395	2.21910
1314.000	3.04764	3.32188	0.07908	2.21115
1315.000	3.07918	3.30198	0.04547	2.15354
1316.000	3.02595	3.27640	0.06326	2.17142
1317.000	2.99638	3.24085	0.05140	2.21314
1318.000	3.01018	3.22892	0.00395	2.19129
1319.000	3.06144	3.23867	0.06129	2.16348
1320.000	3.06735	3.28420	0.06524	2.17937
1321.000	3.05947	3.24066	0.06722	2.15553
1322.000	3.06144	3.30600	0.05140	2.14957
1323.000	3.05552	3.28028	0.03163	2.14163
1324.000	3.02595	3.27838	-0.00395	2.16149
1325.000	3.02792	3.21501	0.02768	2.14957
1326.000	3.07524	3.26635	0.02768	2.09792
1327.000	3.06735	3.27826	0.03954	2.14162
1328.000	3.01807	3.25465	-0.01186	2.15951
1329.000	3.08904	3.31185	0.01779	2.11977
1330.000	3.08115	3.35741	-0.00593	2.08004
1331.000	3.04567	3.27040	0.01977	2.18136
1332.000	3.02201	3.31206	0.00395	2.15752
1333.000	3.07327	3.29408	0.03163	2.21314
1334.000	3.04961	3.27039	0.01186	2.11977
1335.000	2.99441	3.19332	-0.03163	2.13567
1336.000	3.02595	3.25066	-0.00198	2.15553
1337.000	3.03187	3.23678	-0.01582	2.12971
1338.000	3.01807	3.32593	0.01779	2.10984
1339.000	3.04764	3.27040	0.07117	2.06414
1340.000	2.99244	3.23492	0.02966	2.09990
1341.000	3.04961	3.23475	0.01779	2.06215
1342.000	3.10678	3.24646	0.00198	2.11580
1343.000	3.04567	3.24862	-0.03756	2.16149
1344.000	3.02004	3.26454	0.05733	2.16546
1345.000	3.04764	3.30406	-0.01582	2.16348
1346.000	3.02004	3.24474	0.01186	2.10388
1347.000	2.98061	3.22703	-0.02175	2.14759
1348.000	3.02201	3.26652	0.00395	2.19924
1349.000	3.03581	3.22093	0.00395	2.07606
1350.000	3.01807	3.25465	-0.00989	2.12176
1351.000	3.02398	3.29423	0.01779	2.14163
1352.000	3.00821	3.24081	-0.00198	2.16348
1353.000	3.04567	3.32585	0.02570	2.13765
1354.000	3.02989	3.26649	-0.03559	2.21513
1355.000	3.05749	3.25255	-0.00395	2.12772
1356.000	3.04567	3.23872	0.02570	2.12375
1357.000	3.01215	3.24872	0.01977	2.13765
1358.000	3.06144	3.25452	0.01582	2.13169
1359.000	3.01807	3.22890	-0.02966	2.14957
1360.000	3.04764	3.27040	-0.01582	2.16149
1361.000	3.02004	3.25266	-0.03559	2.11580
1362.000	3.06144	3.19313	0.02966	2.15355
1363.000	3.05158	3.24068	0.00000	2.18533
1364.000	3.05552	3.34363	0.00593	2.18334
1365.000	3.02792	3.29818	-0.04943	2.12772
1366.000	3.06144	3.22085	0.04547	2.10785
1367.000	3.03384	3.22687	0.01186	2.14560
1368.000	3.04172	3.22883	0.02768	2.16944
1369.000	3.03975	3.22686	-0.00198	2.17738
1370.000	3.10678	3.27616	0.03361	2.16745
1371.000	3.05947	3.30996	-0.02372	2.19526
1372.000	3.11072	3.22664	0.02570	2.18533
1373.000	3.05355	3.27632	-0.04547	2.17341
1374.000	3.03187	3.27837	0.01779	2.18930
1375.000	3.02989	3.26649	0.02570	2.12573
1376.000	3.08706	3.23860	-0.00593	2.12772
1377.000	3.06538	3.32776	-0.02768	2.17738
1378.000	3.10481	3.30586	0.03954	2.14560
1379.000	3.07327	3.21685	-0.00395	2.22109
1380.000	3.09692	3.22272	-0.02175	2.12176
1381.000	3.03187	3.22886	0.00000	2.13368
1382.000	3.09889	3.26826	-0.00395	2.12772
1383.000	3.12058	3.22067	0.00198	2.16944
1384.000	3.06341	3.27233	-0.07908	2.16546
1385.000	3.10875	3.24249	0.01384	2.14163
1386.000	3.06735	3.25648	-0.02175	2.18930
1387.000	3.03187	3.27837	-0.00593	2.17341
1388.000	3.11663	3.23851	0.03559	2.16745
1389.000	3.08312	3.32375	-0.03163	2.13368
1390.000	3.05355	3.26840	0.00989	2.19725
1391.000	3.07524	3.22675	-0.02175	2.09394
1392.000	3.06735	3.31390	-0.06129	2.12573
1393.000	3.10875	3.27417	-0.00593	2.13567
1394.000	3.10875	3.32169	-0.02966	2.18334
1395.000	3.10481	3.29002	-0.02175	2.19129
1396.000	3.07129	3.28419	-0.02768	2.16348
1397.000	3.11269	3.27416	-0.02372	2.16745
1398.000	3.08312	3.30593	-0.05733	2.17738
1399.000	3.07918	3.30990	0.00198	2.12176
1400.000	3.05355	3.29810	-0.00791	2.10785
1401.000	3.12255	3.28997	0.02372	2.13964
1402.000	3.08115	3.28416	-0.02372	2.18334
1403.000	3.05552	3.31394	0.02372	2.07010
1404.000	3.10086	3.25043	-0.03361	2.09990
1405.000	3.16591	3.30369	-0.02175	2.16149
1406.000	3.11269	3.32762	-0.02372	2.11381
1407.000	3.18759	3.36103	0.01977	2.15553
1408.000	3.15014	3.35917	0.10280	2.17142
1409.000	3.06538	3.34162	-0.01582	2.10189
1410.000	3.12846	3.39092	-0.03361	2.12374
1411.000	3.12452	3.38301	0.00791	2.16944
1412.000	3.10086	3.37913	-0.02175	2.15156
1413.000	3.18365	3.44418	0.01384	2.12772
1414.000	3.09889	3.41279	0.00791	2.12971
1415.000	3.09692	3.43852	-0.00593	2.06216
1416.000	3.11466	3.39096	0.01779	2.18136
1417.000	3.08904	3.40094	0.04152	2.14560
1418.000	3.11860	3.45825	-0.01977	2.14560
1419.000	3.09298	3.44052	0.02372	2.14957
1420.000	3.07721	3.41286	0.08106	2.16745
1421.000	3.09298	3.44646	0.05536	2.20917
1422.000	3.06341	3.38518	0.05733	2.19328
1423.000	3.09298	3.36529	0.05931	2.21314
1424.000	3.04567	3.41296	0.05536	2.22307
1425.000	3.08312	3.43659	0.10083	2.17341
1426.000	3.07327	3.47225	0.06326	2.15950
1427.000	3.06538	3.46040	0.05536	2.19924
1428.000	3.10283	3.45632	0.09885	2.19129
1429.000	3.08115	3.38909	0.05733	2.18732
1430.000	3.02792	3.44864	0.05536	2.24691
1431.000	3.05749	3.39114	0.06129	2.28664
1432.000	3.00032	3.39528	0.05536	2.22705
1433.000	3.04567	3.36544	0.08501	2.29855
1434.000	3.02595	3.33977	0.03559	2.24492
1435.000	3.03581	3.39121	0.11664	2.21314
1436.000	3.08904	3.39104	0.08699	2.25088
1437.000	3.13634	3.40475	0.05140	2.31047
1438.000	3.04764	3.42879	0.03954	2.28862
1439.000	3.05749	3.42677	0.07513	2.23896
1440.000	3.08115	3.41086	0.07710	2.27670
1441.000	3.07918	3.42077	0.11269	2.28266
1442.000	3.06538	3.37132	0.08303	2.31643
1443.000	3.05158	3.39512	0.10478	2.32437
1444.000	3.05947	3.44656	0.08501	2.29061
1445.000	3.03975	3.44861	0.05338	2.27869
1446.000	3.04369	3.41296	0.07908	2.28862
1447.000	3.03581	3.40903	0.04943	2.29260
1448.000	3.09298	3.38509	0.03361	2.25486
1449.000	3.03975	3.38130	0.04152	2.28664
1450.000	3.04961	3.38919	0.04547	2.28068
1451.000	3.06735	3.46633	0.07315	2.23698
1452.000	3.08706	3.45043	0.00593	2.30054
1453.000	3.02792	3.38728	0.06920	2.33629
1454.000	3.05158	3.43273	0.01779	2.23301
1455.000	3.06144	3.43666	0.03756	2.27075
1456.000	3.05355	3.42679	0.05931	2.25486
1457.000	3.10481	3.48402	0.07513	2.28862
1458.000	3.07327	3.47225	0.02372	2.28266
1459.000	3.02398	3.46647	0.04943	2.28664
1460.000	3.06538	3.47228	0.06920	2.25088
1461.000	3.06932	3.45841	0.07117	2.29061
1462.000	3.06538	3.40695	0.09292	2.30054
1463.000	3.07129	3.40892	0.08106	2.31444
1464.000	3.11072	3.48400	0.05140	2.28664
1465.000	3.07524	3.41088	0.09094	2.32835
1466.000	3.08706	3.54543	0.05733	2.29458
1467.000	3.09495	3.46228	0.02768	2.29260
1468.000	3.16985	3.51943	0.02372	2.30650
1469.000	3.02989	3.45853	0.01779	2.26677
1470.000	3.10283	3.53746	0.01384	2.31643
1471.000	3.11466	3.48993	0.00000	2.32636
1472.000	3.11269	3.51368	0.03361	2.27472
1473.000	3.05355	3.41887	0.00989	2.24095
1474.000	3.10283	3.47413	0.04943	2.25287
1475.000	3.09101	3.43459	-0.01779	2.16745
1476.000	3.08115	3.42472	-0.01582	2.25883
1477.000	3.08706	3.51773	-0.00198	2.21513
1478.000	3.11663	3.37116	-0.01977	2.22109
1479.000	3.07327	3.48808	-0.01384	2.25486
1480.000	3.18168	3.47387	-0.04349	2.23698
1481.000	3.10283	3.41673	0.00593	2.25088
1482.000	3.08312	3.41680	0.01384	2.30253
1483.000	3.11860	3.48596	-0.01384	2.27869
1484.000	3.10086	3.50383	-0.04745	2.29061
1485.000	3.12649	3.42457	-0.00989	2.33828
1486.000	3.11072	3.44244	-0.04943	2.17937
1487.000	3.12058	3.46220	-0.11664	2.26478
1488.000	3.10678	3.44245	-0.04152	2.23301
1489.000	3.12255	3.43250	-0.02175	2.27671
1490.000	3.12846	3.46613	-0.00198	2.27472
1491.000	3.09298	3.38113	-0.04745	2.21711
1492.000	3.10086	3.40684	-0.03163	2.21115
1493.000	3.14620	3.48586	-0.01779	2.18732
1494.000	3.14817	3.43044	-0.01384	2.25486
1495.000	3.10875	3.41869	-0.04152	2.20321
1496.000	3.09101	3.42271	-0.02570	2.26280
1497.000	3.08706	3.42470	-0.00989	2.21910
1498.000	3.05158	3.41690	-0.01186	2.22506
1499.000	3.07721	3.43067	-0.01186	2.17937
1500.000	3.09495	3.40290	-0.06326	2.16745
1501.000	3.07524	3.32179	-0.00791	2.23499
1502.000	3.06735	3.33370	0.03163	2.24095
1503.000	3.10086	3.37715	0.02570	2.23698
1504.000	3.08706	3.36729	0.00395	2.16348
1505.000	3.06735	3.39705	-0.01977	2.20321
1506.000	3.12255	3.44834	0.06920	2.21314
1507.000	3.06538	3.43071	-0.00593	2.19129
1508.000	3.05749	3.34165	0.04943	2.17142
1509.000	3.08904	3.33759	0.02570	2.15355
1510.000	3.09692	3.37320	0.00198	2.13169
1511.000	3.03384	3.39716	0.02372	2.17738
1512.000	3.08904	3.37718	0.01779	2.18334
1513.000	3.03975	3.37734	0.03954	2.18334
1514.000	3.03384	3.37538	0.04349	2.14162
1515.000	3.09692	3.29599	0.01384	2.14759
1516.000	3.09692	3.32767	0.04745	2.15553
1517.000	3.07327	3.35150	0.06326	2.20321
1518.000	3.09495	3.35143	0.03756	2.18136
1519.000	3.04172	3.34368	0.05931	2.12970
1520.000	3.10875	3.29595	0.05931	2.08997
1521.000	3.11072	3.38503	0.06129	2.12772
1522.000	3.05947	3.35550	0.04349	2.15156
1523.000	3.06144	3.41884	0.03559	2.17540
1524.000	3.04172	3.29814	0.06722	2.10189
1525.000	3.03581	3.38131	0.02175	2.07408
1526.000	3.05158	3.37730	0.00791	2.10586
1527.000	3.09101	3.36332	0.06920	2.11580
1528.000	3.08706	3.35739	0.02768	2.09196
1529.000	3.04369	3.38525	-0.01779	2.15355
1530.000	3.11663	3.38106	0.06129	2.19129
1531.000	3.04172	3.40901	0.01977	2.20122
1532.000	3.06144	3.36143	0.03559	2.16149
1533.000	3.09298	3.36134	0.03756	2.18930
1534.000	3.08706	3.40491	-0.04745	2.21115
1535.000	3.11466	3.38304	-0.00989	2.14957
1536.000	3.09889	3.38309	0.00395	2.19328
1537.000	3.12255	3.36322	0.01186	2.16149
1538.000	3.08509	3.37522	0.00989	2.20520
1539.000	3.10283	3.45038	-0.00198	2.29061
1540.000	3.05355	3.39907	0.02570	2.19328
1541.000	3.08509	3.46627	-0.02966	2.24691
1542.000	3.07721	3.43463	-0.02372	2.09593
1543.000	3.08706	3.43856	-0.00198	2.05619
1544.000	3.09692	3.35538	-0.11269	2.06215
1545.000	3.04172	3.29418	-0.10478	1.90517
1546.000	2.99046	3.18739	-0.18584	1.82766
1547.000	2.87807	3.00743	-0.14234	1.59710
1548.000	2.74593	2.88291	-0.15025	1.49571
1549.000	2.68478	2.86323	-0.22933	1.45594
1550.000	2.56444	2.80800	-0.29259	1.32073
1551.000	2.45196	2.58810	-0.39539	1.31674
1552.000	2.36315	2.53669	-0.48435	1.26503
1553.000	2.30986	2.44552	-0.55157	1.34654
1554.000	2.23288	2.28292	-0.61285	1.21331
1555.000	2.19340	2.26909	-0.56343	1.19940
1556.000	2.12628	2.15603	-0.63064	1.09001
1557.000	2.04335	2.07077	-0.61878	1.09002
1558.000	2.07889	2.10448	-0.58913	1.04428
1559.000	2.10061	2.05084	-0.66622	1.05421
1560.000	2.12825	1.94358	-0.66029	1.14171
1561.000	2.11838	2.03692	-0.71366	1.15363
1562.000	2.14010	2.11631	-0.79075	1.17747
1563.000	2.14010	2.11035	-0.84610	1.12973
1564.000	2.06507	2.08266	-0.86388	1.12575
1565.000	2.05520	2.06480	-0.94690	1.10186
1566.000	2.04533	2.08467	-0.93306	1.06607
1567.000	2.05718	2.02707	-0.94295	1.03227
1568.000	2.01176	2.02117	-0.93899	1.05613
1569.000	2.07692	1.97939	-0.93109	0.98057
1570.000	1.99991	1.96558	-0.91132	0.94279
1571.000	2.02163	1.94570	-0.92318	0.95671
1572.000	2.04730	1.89999	-0.89946	0.93881
1573.000	2.07297	1.85031	-0.87574	0.92888
1574.000	2.05718	1.93374	-0.89946	0.91893
1575.000	2.04335	1.95957	-0.92516	0.94279
1576.000	2.00386	1.92586	-0.93109	0.97460
1577.000	2.05520	1.95559	-0.84412	0.97462
1578.000	2.11246	2.00317	-0.90342	1.01637
1579.000	2.10851	1.99325	-0.92318	1.02233
1580.000	2.05125	1.98339	-0.90737	1.05017
1581.000	2.05323	2.03105	-0.91725	0.99847
1582.000	2.00979	1.97351	-0.90539	0.92489
1583.000	2.06705	1.96947	-0.92713	0.99051
1584.000	2.11641	2.05876	-0.94492	1.06209
1585.000	2.07297	2.09258	-0.91923	1.04818
1586.000	2.06705	2.05684	-0.90342	0.98455
1587.000	1.98807	1.94971	-0.94690	1.03624
1588.000	2.03348	1.92781	-0.92318	0.95273
1589.000	1.99399	1.94176	-0.90539	0.95671
1590.000	1.99794	1.95168	-0.90737	0.92489
1591.000	1.99202	1.91594	-0.89353	0.96865
1592.000	1.96240	1.86633	-0.89749	1.00046
1593.000	1.99991	1.89409	-0.90934	0.99250
1594.000	2.03151	1.96554	-0.91527	0.92688
1595.000	1.94660	1.90209	-0.85203	0.94877
1596.000	1.97227	1.89015	-0.94097	1.01437
1597.000	1.96635	1.86235	-0.85796	0.98059
1598.000	1.97819	1.84645	-0.90934	0.99052
1599.000	1.96437	1.91598	-0.92516	0.97460
1600.000	1.97227	1.88220	-0.83424	0.96866
1601.000	1.97424	1.92788	-0.92318	0.95074
1602.000	1.92093	1.88425	-0.92713	0.99250
1603.000	2.00584	1.87422	-0.89551	0.96666
1604.000	2.00979	1.95366	-0.89551	0.95472
1605.000	1.93080	1.87629	-0.90539	0.96268
1606.000	2.00189	1.96359	-0.91132	0.95671
1607.000	1.97424	1.86234	-0.89946	1.01836
1608.000	1.98214	1.87822	-0.90539	0.97461
1609.000	2.00189	1.90203	-0.91527	0.90500
1610.000	1.98017	1.89212	-0.86784	1.00445
1611.000	2.04335	1.88212	-0.91132	0.95870
1612.000	1.99202	1.85438	-0.91330	0.98057
1613.000	2.00584	1.85039	-0.86388	0.90104
1614.000	1.98214	1.89808	-0.93306	0.93483
1615.000	1.93278	1.74916	-0.90144	0.94876
1616.000	2.00979	1.87223	-0.89749	0.97063
1617.000	1.97622	1.79878	-0.97062	0.96266
1618.000	1.99399	1.83650	-0.91132	0.99250
1619.000	2.00979	1.78881	-0.91527	0.96665
1620.000	2.04730	1.90793	-0.89551	0.94876
1621.000	1.96832	1.80872	-0.90737	0.90500
1622.000	1.99991	1.86430	-0.95085	0.95272
1623.000	1.97424	1.79084	-0.88167	0.91694
1624.000	2.07100	1.84435	-0.96666	0.98652
1625.000	2.03546	1.88014	-0.91527	0.99250
1626.000	2.05718	1.82650	-0.87377	0.99053
1627.000	2.05323	1.78082	-0.92120	0.97460
1628.000	2.02163	1.89605	-0.89156	0.90302
1629.000	2.02558	1.84242	-0.87574	0.95473
1630.000	2.01966	1.84640	-0.94887	0.97857
1631.000	2.02361	1.81263	-0.93899	0.94676
1632.000	2.03743	1.81261	-0.92318	0.95472
1633.000	2.06310	1.77485	-0.93306	0.96863
1634.000	2.05718	1.76890	-0.88958	0.89308
1635.000	2.01571	1.74709	-0.92911	0.98057
1636.000	2.05718	1.80663	-0.92911	0.96267
1637.000	2.06507	1.81258	-0.93899	0.90897
1638.000	2.02953	1.79077	-0.90737	0.92688
1639.000	2.05915	1.78478	-0.94690	0.91892
1640.000	1.95450	1.76702	-0.99433	0.93481
1641.000	1.97029	1.73522	-0.96864	0.88908
1642.000	2.01571	1.72723	-0.94887	0.96664
1643.000	2.04928	1.79274	-0.98445	0.91493
1644.000	2.03546	1.78481	-0.94097	0.92488
1645.000	1.97227	1.75707	-0.94690	0.87119
1646.000	2.03941	1.73117	-0.93702	0.86125
1647.000	1.98017	1.74514	-0.92318	0.91296
1648.000	2.03743	1.76892	-0.92318	0.84534
1649.000	2.03546	1.79474	-0.96666	0.89306
1650.000	2.03151	1.79276	-0.99038	0.87714
1651.000	2.03546	1.76495	-0.98445	0.94078
1652.000	2.04335	1.77487	-1.00421	0.86521
1653.000	2.06507	1.81854	-1.04572	0.93480
1654.000	2.03348	1.73913	-0.93702	0.83340
1655.000	2.02953	1.72324	-1.00817	0.83339
1656.000	1.98807	1.70739	-0.96469	0.87715
1657.000	2.05323	1.79075	-0.99236	0.87316
1658.000	1.97819	1.79282	-0.96271	0.85925
1659.000	1.98807	1.73918	-0.92120	0.86125
1660.000	2.01176	1.76895	-0.95283	0.89107
1661.000	2.03546	1.78282	-0.93306	0.85727
1662.000	2.10259	1.86021	-0.93504	0.92091
1663.000	2.02163	1.77688	-0.96073	0.94079
1664.000	2.06112	1.87416	-1.01607	0.96463
1665.000	2.09074	1.85228	-0.97457	0.94874
1666.000	2.03743	1.83049	-1.00817	0.93878
1667.000	2.05718	1.86224	-0.99829	1.00441
1668.000	2.08284	1.88605	-0.98050	0.99447
1669.000	2.12825	1.86613	-0.97457	0.94078
1670.000	2.10851	1.90587	-0.94295	0.95869
1671.000	2.11641	1.88601	-0.90539	0.95074
1672.000	2.10654	1.87807	-0.97457	0.92686
1673.000	2.05323	1.93573	-0.96864	1.00840
1674.000	2.08482	1.89200	-0.93109	0.93284
1675.000	2.15589	1.90383	-0.95678	0.96863
1676.000	2.11246	1.83040	-0.96271	0.92687
1677.000	2.07495	1.91187	-0.94295	0.94875
1678.000	2.14405	1.96938	-0.98643	0.92686
1679.000	2.10061	1.87411	-0.97654	0.98453
1680.000	2.10061	1.91184	-0.98445	0.89305
1681.000	2.13418	1.88201	-0.88760	0.93484
1682.000	2.08482	1.88009	-0.97457	0.91294
1683.000	2.12628	1.84826	-1.02793	0.94077
1684.000	2.10654	1.90389	-0.95678	0.94675
1685.000	2.09666	1.82248	-0.97852	0.92885
1686.000	2.11443	1.92175	-0.95480	0.90897
1687.000	2.07495	1.85428	-1.02003	0.91293
1688.000	2.13220	1.89592	-1.03386	0.91690
1689.000	2.11838	1.88799	-0.95876	0.95073
1690.000	2.14997	1.89987	-0.92713	0.91097
1691.000	2.10456	1.87609	-0.99433	0.89504
1692.000	2.13023	1.86216	-0.97852	0.92487
1693.000	2.11641	1.89196	-0.93702	0.94278
1694.000	2.11048	1.86020	-1.02398	0.94475
1695.000	2.09666	1.88206	-0.99236	0.91691
1696.000	2.11443	1.84430	-0.98643	0.98055
1697.000	2.11838	1.79862	-0.91725	0.98057
1698.000	2.12036	1.91976	-0.91725	0.94080
1699.000	2.06310	1.83245	-1.00421	0.95469
1700.000	2.04533	1.84836	-0.98445	0.99646
1701.000	2.05915	1.81259	-0.95480	0.99647
1702.000	2.06705	1.84833	-0.98247	0.93283
1703.000	2.08679	1.83838	-0.93306	1.05414
1704.000	2.10851	1.84034	-0.95678	0.91096
1705.000	2.07297	1.84634	-1.00817	1.00441
1706.000	2.11641	1.87210	-0.96271	1.05215
1707.000	2.09271	1.84631	-0.96469	1.01834
1708.000	2.14207	1.83633	-0.95085	1.02431
1709.000	2.12036	1.79067	-0.95678	1.04817
1710.000	2.05520	1.84834	-0.99829	1.00839
1711.000	2.07100	1.77285	-0.97062	1.02430
1712.000	2.08679	1.82646	-0.95876	0.98652
1713.000	2.14010	1.82243	-0.96864	0.99050
1714.000	2.12430	1.84826	-0.97852	1.01436
1715.000	2.12430	1.79265	-0.99236	1.05412
1716.000	2.10456	1.81452	-0.99631	1.04418
1717.000	2.13023	1.85223	-0.99829	0.98452
1718.000	2.13023	1.84627	-0.94887	1.01039
1719.000	2.14800	1.84625	-0.97457	0.98851
1720.000	2.11246	1.84033	-0.96469	1.02232
1721.000	2.13220	1.83435	-1.02793	1.03224
1722.000	2.15194	1.89788	-0.97852	1.03623
1723.000	2.15589	1.87007	-0.97062	1.01237
1724.000	2.09074	1.83639	-0.99236	1.06606
1725.000	2.11641	1.85026	-1.00817	1.01833
1726.000	2.11246	1.80061	-0.97654	1.05413
1727.000	2.11443	1.84629	-0.94097	0.99250
1728.000	2.14405	1.84228	-0.93306	0.96863
1729.000	2.15392	1.84823	-0.96666	1.04220
1730.000	2.11048	1.74897	-0.94097	1.04221
1731.000	2.08679	1.84632	-0.98643	1.02629
1732.000	2.14010	1.82838	-1.01805	1.05412
1733.000	2.05718	1.88012	-0.98247	0.97856
1734.000	2.06902	1.84038	-0.96666	1.01834
1735.000	2.08284	1.77681	-0.93109	0.98454
1736.000	2.10654	1.84431	-0.97654	0.97857
1737.000	2.12628	1.81251	-0.91923	1.01636
1738.000	2.07100	1.82847	-0.99829	1.03424
1739.000	2.11838	1.81252	-0.99038	1.00044
1740.000	2.09666	1.77481	-0.93504	0.97858
1741.000	2.16181	1.83829	-0.96666	1.02033
1742.000	2.13023	1.82641	-0.94492	0.94676
1743.000	2.14010	1.82441	-1.03979	1.06206
1744.000	2.11048	1.81253	-0.93504	0.96466
1745.000	2.06705	1.78279	-1.00026	0.99049
1746.000	2.09666	1.78077	-0.98247	0.95072
1747.000	2.10654	1.83637	-0.95283	0.97460
1748.000	2.11246	1.73705	-0.94690	0.98255
1749.000	2.09666	1.82844	-0.97457	0.96266
1750.000	2.09666	1.73707	-0.99631	1.05810
1751.000	2.08679	1.77879	-0.96864	0.97260
1752.000	2.12430	1.75492	-1.02398	0.92685
1753.000	2.06902	1.85627	-1.01014	0.96265
1754.000	2.11443	1.81054	-0.93702	0.96466
1755.000	2.11048	1.83835	-1.00224	0.94873
1756.000	2.11246	1.77281	-0.93306	1.03227
1757.000	2.11246	1.70527	-1.01212	0.97259
1758.000	2.10456	1.74699	-0.98445	0.95470
1759.000	2.10061	1.76289	-0.98445	1.01833
1760.000	2.09271	1.77879	-1.01014	0.97259
1761.000	2.04730	1.80664	-0.99829	0.96862
1762.000	2.07495	1.80661	-0.96469	1.00442
1763.000	2.08679	1.81057	-0.93702	1.03227
1764.000	2.17169	1.85615	-0.92911	0.98256
1765.000	2.16576	1.83233	-0.86191	0.98854
1766.000	2.16181	1.81843	-0.78087	1.00248
1767.000	2.36118	1.84002	-0.75122	1.00448
1768.000	2.45394	1.94314	-0.61482	0.96672
1769.000	2.51708	1.98275	-0.53575	0.96673
1770.000	2.70451	2.00627	-0.45272	1.10794
1771.000	2.80707	2.07357	-0.36179	1.09006
1772.000	2.83863	2.09733	-0.31434	1.21733
1773.000	2.92145	2.10908	-0.22340	1.20740
1774.000	3.03778	2.21995	-0.17595	1.26109
1775.000	3.10086	2.30709	-0.14630	1.24718
1776.000	3.08115	2.30714	-0.09292	1.17559
1777.000	3.13437	2.29512	-0.12455	1.27104
1778.000	3.20927	2.37824	-0.09687	1.26110
1779.000	3.17576	2.39815	-0.08699	1.27502
1780.000	3.08509	2.31506	-0.10874	1.30683
1781.000	3.07327	2.40036	-0.14037	1.29490
1782.000	3.06538	2.26353	-0.14234	1.24916
1783.000	3.09101	2.33091	-0.13444	1.27899
1784.000	3.08312	2.30912	-0.14037	1.30882
1785.000	3.09298	2.32298	-0.14432	1.31081
1786.000	3.04172	2.27945	-0.10874	1.37841
1787.000	3.05947	2.28537	-0.07908	1.30882
1788.000	3.13832	2.34866	-0.10280	1.34660
1789.000	3.05158	2.35480	-0.10083	1.32473
1790.000	3.07327	2.28335	-0.02175	1.30683
1791.000	3.07918	2.30516	-0.10478	1.31081
1792.000	3.01807	2.26760	-0.13641	1.37046
1793.000	2.98258	2.20816	-0.14234	1.36648
1794.000	3.07129	2.21790	-0.10676	1.30285
1795.000	3.04764	2.29332	-0.09885	1.24519
1796.000	3.03187	2.27352	-0.11269	1.31876
1797.000	3.05947	2.27148	-0.10280	1.34262
1798.000	3.02595	2.28147	-0.13839	1.31677
1799.000	3.05749	2.27149	-0.11071	1.27502
1800.000	3.11269	2.28525	-0.10083	1.32473
1801.000	3.09298	2.30314	-0.10874	1.31478
1802.000	3.09101	2.23968	-0.14827	1.32671
1803.000	3.09298	2.25158	-0.11269	1.30683
1804.000	3.14423	2.26932	-0.07908	1.41221
1805.000	3.10481	2.33683	-0.11071	1.39034
1806.000	3.15014	2.28715	-0.09094	1.29888
1807.000	3.10678	2.26146	-0.09292	1.35256
1808.000	3.08706	2.20795	-0.09094	1.30882
1809.000	3.13240	2.26537	-0.12455	1.37046
1810.000	3.14620	2.27923	-0.10280	1.36449
1811.000	3.15803	2.27127	-0.07710	1.30683
1812.000	3.09889	2.27933	-0.09687	1.31081
1813.000	3.15014	2.32483	-0.12060	1.39829
1814.000	3.14029	2.30106	-0.03954	1.43210
1815.000	3.10481	2.26147	-0.12455	1.36449
1816.000	3.19547	2.33266	-0.09292	1.40227
1817.000	3.17971	2.27519	-0.12060	1.24718
1818.000	3.15605	2.31887	-0.12060	1.36648
1819.000	3.11269	2.33682	-0.07117	1.41221
1820.000	3.13832	2.32288	-0.10874	1.30285
1821.000	3.16000	2.28911	-0.11664	1.40028
1822.000	3.15408	2.30301	-0.09687	1.34461
1823.000	3.14423	2.30501	-0.13641	1.32075
1824.000	3.11466	2.32095	-0.10478	1.36449
1825.000	3.10678	2.27931	-0.10874	1.36847
1826.000	3.09692	2.27140	-0.12653	1.34063
1827.000	3.12452	2.27333	-0.13048	1.40426
1828.000	3.12846	2.25547	-0.15223	1.38239
1829.000	3.15211	2.21178	-0.06326	1.37642
1830.000	3.12846	2.27530	-0.11071	1.40028
1831.000	3.15605	2.27722	-0.09687	1.40426
1832.000	3.12452	2.30506	-0.11467	1.32671
1833.000	3.14620	2.25939	-0.16014	1.39034
1834.000	3.15803	2.29110	-0.15223	1.34660
1835.000	3.15014	2.26335	-0.16607	1.42811
1836.000	3.12649	2.26935	-0.11664	1.36250
1837.000	3.16985	2.21373	-0.14432	1.36449
1838.000	3.15605	2.26532	-0.10676	1.35853
1839.000	3.13240	2.27132	-0.13444	1.44402
1840.000	3.19547	2.30688	-0.12257	1.38040
1841.000	3.19744	2.32671	-0.11269	1.37642
1842.000	3.16591	2.32282	-0.19968	1.35455
1843.000	3.21912	2.32666	-0.11467	1.39631
1844.000	3.17774	2.34064	-0.10874	1.44005
1845.000	3.18168	2.28510	-0.17200	1.41221
1846.000	3.12452	2.33084	-0.17200	1.39630
1847.000	3.19153	2.30689	-0.15816	1.37642
1848.000	3.23292	2.27705	-0.11862	1.32870
1849.000	3.19547	2.29102	-0.07513	1.32075
1850.000	3.19941	2.36042	-0.12455	1.36250
1851.000	3.16000	2.25936	-0.12060	1.30087
1852.000	3.15014	2.31888	-0.14037	1.29291
1853.000	3.20139	2.28307	-0.12850	1.30683
1854.000	3.19547	2.35844	-0.12653	1.24121
1855.000	3.17182	2.28512	-0.17200	1.32671
1856.000	3.19547	2.29498	-0.16409	1.31279
1857.000	3.19941	2.27713	-0.11269	1.33069
1858.000	3.20336	2.32471	-0.17200	1.30285
1859.000	3.14226	2.30304	-0.21747	1.34460
1860.000	3.13832	2.24553	-0.13246	1.31478
1861.000	3.17379	2.25735	-0.14827	1.30683
1862.000	3.21124	2.29495	-0.17398	1.28893
1863.000	3.11663	2.26343	-0.11071	1.34063
1864.000	3.22109	2.31278	-0.18188	1.24717
1865.000	3.16985	2.20976	-0.14432	1.28893
1866.000	3.17379	2.24942	-0.15025	1.24916
1867.000	3.16197	2.28514	-0.13246	1.31876
1868.000	3.17576	2.24743	-0.13048	1.30484
1869.000	3.22504	2.25327	-0.14630	1.26308
1870.000	3.16985	2.25141	-0.16409	1.30683
1871.000	3.16197	2.23953	-0.13048	1.22530
1872.000	3.14423	2.22568	-0.17991	1.26706
1873.000	3.19153	2.24145	-0.16804	1.30882
1874.000	3.19350	2.16211	-0.19770	1.25711
1875.000	3.16591	2.21572	-0.16804	1.29092
1876.000	3.16985	2.21373	-0.14630	1.28496
1877.000	3.20927	2.19182	-0.16014	1.31876
1878.000	3.13240	2.18604	-0.19572	1.28296
1879.000	3.13240	2.22571	-0.18584	1.28495
1880.000	3.17576	2.17999	-0.17002	1.33268
1881.000	3.18562	2.17204	-0.20758	1.28694
1882.000	3.13634	2.12850	-0.18979	1.31279
1883.000	3.14817	2.11658	-0.21549	1.27899
1884.000	3.17774	2.17602	-0.16014	1.28098
1885.000	3.16591	2.14828	-0.18188	1.24916
1886.000	3.14029	2.23957	-0.18979	1.28495
1887.000	3.13240	2.21381	-0.15618	1.22928
1888.000	3.15014	2.21972	-0.15421	1.31081
1889.000	3.12255	2.19002	-0.17200	1.36051
1890.000	3.14226	2.19792	-0.14432	1.28297
1891.000	3.23489	2.25127	-0.17002	1.25314
1892.000	3.17379	2.18397	-0.17398	1.32671
1893.000	3.14423	2.14832	-0.19572	1.29291
1894.000	3.12452	2.19597	-0.15025	1.30285
1895.000	3.25854	2.30277	-0.19177	1.24518
1896.000	3.15014	2.27525	-0.17595	1.27700
1897.000	3.12649	2.21778	-0.12257	1.29291
1898.000	3.22504	2.34846	-0.18386	1.32870
1899.000	3.23686	2.36826	-0.13839	1.30683
1900.000	3.19941	2.24341	-0.17002	1.27899
1901.000	3.22306	2.32070	-0.11664	1.31876
1902.000	3.19547	2.30490	-0.09687	1.23724
1903.000	3.21124	2.31676	-0.15421	1.27899
1904.000	3.22306	2.36036	-0.11071	1.28894
1905.000	3.19153	2.23748	-0.14432	1.29291
1906.000	3.17576	2.31684	-0.15223	1.25513
1907.000	3.20730	2.27711	-0.17595	1.32075
1908.000	3.19153	2.24343	-0.14630	1.31876
1909.000	3.23883	2.27902	-0.12060	1.35455
1910.000	3.19350	2.27119	-0.10676	1.31081
1911.000	3.25065	2.26908	-0.15223	1.34461
1912.000	3.20336	2.26919	-0.11071	1.33268
1913.000	3.21321	2.27313	-0.15421	1.33069
1914.000	3.19547	2.25532	-0.17398	1.35057
1915.000	3.16197	2.28118	-0.10083	1.31280
1916.000	3.21321	2.32073	-0.15025	1.31279
1917.000	3.20533	2.26720	-0.17200	1.29887
1918.000	3.25460	2.24726	-0.16409	1.34660
1919.000	3.14029	2.30502	-0.15025	1.33665
1920.000	3.16591	2.27125	-0.18979	1.32472
1921.000	3.23095	2.30284	-0.16409	1.27104
1922.000	3.24277	2.31471	-0.17398	1.30086
1923.000	3.13832	2.30304	-0.17793	1.30285
1924.000	3.22306	2.31277	-0.12850	1.33666
1925.000	3.25460	2.32658	-0.14827	1.32671
1926.000	3.22109	2.33855	-0.21352	1.34659
1927.000	3.21124	2.30685	-0.13641	1.25314
1928.000	3.19547	2.31482	-0.17595	1.34659
1929.000	3.21124	2.28107	-0.10280	1.36251
1930.000	3.15605	2.30102	-0.12060	1.39432
1931.000	3.18759	2.32475	-0.17398	1.34461
1932.000	3.18759	2.29897	-0.15816	1.40426
1933.000	3.18365	2.31286	-0.16014	1.33467
1934.000	3.16394	2.34067	-0.10874	1.45794
1935.000	3.21321	2.33064	-0.15618	1.31876
1936.000	3.26839	2.29879	-0.16014	1.40426
1937.000	3.22701	2.27310	-0.14037	1.36051
1938.000	3.22306	2.31277	-0.11269	1.32274
1939.000	3.21518	2.32865	-0.13641	1.36052
1940.000	3.20730	2.31876	-0.13048	1.36648
1941.000	3.22898	2.25723	-0.16014	1.36847
1942.000	3.24080	2.30678	-0.16014	1.40227
1943.000	3.25065	2.32461	-0.12455	1.43607
1944.000	3.25854	2.36226	-0.11467	1.39631
1945.000	3.24671	2.31668	-0.16409	1.38238
1946.000	3.22898	2.35242	-0.09885	1.37642
1947.000	3.27824	2.37808	-0.10280	1.33069
1948.000	3.26839	2.26309	-0.09885	1.33666
1949.000	3.26051	2.37019	-0.11862	1.34859
1950.000	3.25263	2.33452	-0.14432	1.34660
1951.000	3.23292	2.34249	-0.13641	1.33069
1952.000	3.22898	2.32069	-0.10083	1.36052
1953.000	3.27036	2.29482	-0.13246	1.37443
1954.000	3.22504	2.30880	-0.14432	1.34461
1955.000	3.23292	2.33258	-0.13246	1.37841
1956.000	3.24080	2.34049	-0.06920	1.39830
1957.000	3.28612	2.28288	-0.09885	1.36847
1958.000	3.24080	2.34446	-0.11269	1.37046
1959.000	3.28021	2.49108	-0.12257	1.36847
1960.000	3.25657	2.33252	-0.07513	1.40028
1961.000	3.27036	2.30473	-0.15223	1.39829
1962.000	3.27430	2.42567	-0.18584	1.35852
1963.000	3.33736	2.46913	-0.12455	1.31478
1964.000	3.30977	2.34231	-0.07908	1.36648
1965.000	3.24671	2.36427	-0.10478	1.37046
1966.000	3.26248	2.40389	-0.11071	1.35256
1967.000	3.31568	2.37997	-0.10280	1.33069
1968.000	3.32947	2.37994	-0.07315	1.37046
1969.000	3.29795	2.39191	-0.10478	1.32870
1970.000	3.25065	2.32262	-0.09885	1.38040
1971.000	3.29795	2.35027	-0.07117	1.36449
1972.000	3.27824	2.34834	-0.10478	1.34461
1973.000	3.31765	2.39583	-0.12060	1.37245
1974.000	3.26051	2.34045	-0.12653	1.42414
1975.000	3.31765	2.30859	-0.13048	1.39034
1976.000	3.32159	2.34823	-0.11269	1.31876
1977.000	3.31371	2.24911	-0.14827	1.34660
1978.000	3.32750	2.36012	-0.09490	1.41022
1979.000	3.27627	2.35032	-0.08897	1.37841
1980.000	3.27627	2.36024	-0.11269	1.40823
1981.000	3.31765	2.39385	-0.08699	1.42414
1982.000	3.33538	2.37794	-0.08501	1.44601
1983.000	3.28021	2.38204	-0.09490	1.40028
1984.000	3.26248	2.37217	-0.12257	1.46589
1985.000	3.32553	2.34228	-0.11071	1.42613
1986.000	3.26642	2.35035	-0.12257	1.35853
1987.000	3.30386	2.32052	-0.10676	1.41221
1988.000	3.27824	2.31264	-0.15025	1.35256
1989.000	3.25657	2.27502	-0.15025	1.40227
1990.000	3.27036	2.28887	-0.12850	1.41221
1991.000	3.25657	2.27502	-0.08699	1.40028
1992.000	3.28415	2.35427	-0.15421	1.39431
1993.000	3.26248	2.32458	-0.12850	1.44203
1994.000	3.26839	2.27896	-0.17991	1.38040
1995.000	3.24080	2.29885	-0.16211	1.40823
1996.000	3.24474	2.32264	-0.17595	1.38040
1997.000	3.25854	2.32062	-0.19572	1.40028
1998.000	3.24671	2.28297	-0.15025	1.38835
1999.000	3.21715	2.23544	-0.19375	1.38437
2000.000	3.20730	2.30686	-0.13444	1.36052
2001.000	3.25263	2.24528	-0.23724	1.34460
2002.000	3.26445	2.26707	-0.20561	1.38835
2003.000	3.19744	2.22755	-0.17595	1.41221
2004.000	3.16394	2.20779	-0.16409	1.38636
2005.000	3.22109	2.28105	-0.23131	1.29290
2006.000	3.19547	2.24937	-0.17398	1.37841
2007.000	3.20730	2.22555	-0.19177	1.41618
2008.000	3.22109	2.23742	-0.14234	1.35654
2009.000	3.25657	2.25519	-0.16211	1.35654
2010.000	3.18759	2.27914	-0.20758	1.42612
2011.000	3.23686	2.28498	-0.19177	1.38039
2012.000	3.20730	2.23546	-0.17991	1.44203
2013.000	3.24080	2.24332	-0.19572	1.43805
2014.000	3.28021	2.28488	-0.19968	1.48776
2015.000	3.29204	2.27494	-0.16607	1.48577
2016.000	3.23095	2.24929	-0.15816	1.44601
2017.000	3.24277	2.30281	-0.21747	1.42413
2018.000	3.23686	2.27704	-0.19572	1.39630
2019.000	3.28218	2.27099	-0.19375	1.43408
2020.000	3.25263	2.31270	-0.15618	1.40624
2021.000	3.26839	2.23533	-0.17398	1.44799
2022.000	3.24868	2.28693	-0.20165	1.40823
2023.000	3.26839	2.24128	-0.17991	1.40624
2024.000	3.22504	2.27707	-0.22538	1.36846
2025.000	3.21321	2.26321	-0.17398	1.39233
2026.000	3.20533	2.21960	-0.22735	1.37641
2027.000	3.27627	2.27497	-0.18386	1.39630
2028.000	3.27036	2.27499	-0.19375	1.35256
2029.000	3.23489	2.30481	-0.17002	1.38636
2030.000	3.23883	2.25126	-0.14630	1.31677
2031.000	3.18168	2.25535	-0.18781	1.31677
2032.000	3.26248	2.22542	-0.17991	1.38437
2033.000	3.24474	2.34048	-0.16014	1.42811
2034.000	3.22504	2.22551	-0.13048	1.36250
2035.000	3.21518	2.22553	-0.20363	1.35455
2036.000	3.21124	2.17199	-0.17398	1.30683
2037.000	3.19153	2.21368	-0.15618	1.37841
2038.000	3.21321	2.14818	-0.04547	1.35654
2039.000	3.34524	2.19748	-0.04152	1.36847
2040.000	3.40040	2.28460	0.04943	1.35654
2041.000	3.47329	2.19917	0.22142	1.40823
2042.000	3.60327	2.13343	0.36376	1.43406
2043.000	3.76078	2.04384	0.56145	1.37238
2044.000	3.97136	2.17216	0.74529	1.41209
2045.000	4.14840	2.06072	1.04769	1.31258
2046.000	4.33715	1.92747	1.33028	1.18919
2047.000	4.68491	2.06319	1.52589	1.24873
2048.000	4.78702	1.86289	1.86563	1.16304
2049.000	5.14217	1.90147	2.14405	1.14695
2050.000	5.35586	1.99975	2.50919	1.19235
2051.000	5.54394	1.89627	2.68281	1.20211
2052.000	5.92756	2.04916	2.93131	1.22966
2053.000	6.16803	1.96923	3.22109	1.27698
2054.000	6.41805	2.08873	3.40040	1.14772
2055.000	6.63466	2.19834	3.63281	1.16331
2056.000	6.90175	2.03539	3.89462	1.19867
2057.000	7.11793	2.14682	4.11889	1.08330
2058.000	7.36113	2.07473	4.38236	1.11267
2059.000	7.62931	2.02816	4.66724	1.12611
2060.000	7.82538	1.95438	4.92834	1.03057
2061.000	8.11041	1.94122	5.15198	0.94900
2062.000	8.44728	2.01622	5.41073	0.95257
2063.000	8.57104	1.92715	5.69080	0.88878
2064.000	8.89552	1.77821	5.93343	0.91016
2065.000	9.16933	1.92597	6.11722	0.85448
2066.000	9.39462	1.79729	6.41219	0.83028
2067.000	9.57157	1.85516	6.67172	0.93652
2068.000	9.82321	1.94384	6.85888	0.93221
2069.000	9.98436	1.74520	7.04589	0.90026
2070.000	10.18367	1.87323	7.25221	0.85053
2071.000	10.32533	1.86262	7.45833	0.94282
2072.000	10.63310	1.81389	7.71669	1.01912
2073.000	10.72092	1.93638	7.87970	1.01084
2074.000	10.96883	1.87625	8.02126	0.86869
2075.000	11.13070	1.89276	8.20340	0.88011
2076.000	11.36082	1.83280	8.31183	0.95465
2077.000	11.53554	1.89398	8.41633	1.07244
2078.000	11.65126	1.75889	8.64255	0.98529
2079.000	11.79721	1.91360	8.76811	1.00855
2080.000	11.99597	1.78973	8.88973	0.96695
2081.000	12.09997	1.79292	8.99390	0.88024
2082.000	12.24921	1.85989	9.14813	0.88575
2083.000	12.29640	1.77995	9.19630	0.89152
2084.000	12.41525	1.70537	9.24253	0.93656
2085.000	12.45672	1.83707	9.23868	0.92872
2086.000	12.44918	1.79249	9.27720	0.94628
2087.000	12.55094	1.83834	9.23290	0.97585
2088.000	12.46992	1.74189	9.20401	0.96022
2089.000	12.50384	1.73002	9.20979	0.99947
2090.000	12.46238	1.78270	9.19245	0.99952
2091.000	12.49253	1.72427	9.18860	1.05646
2092.000	12.39827	1.74819	9.11537	0.95850
2093.000	12.35489	1.76402	9.09802	1.03709
2094.000	12.43033	1.75380	9.09610	0.97819
2095.000	12.35112	1.75628	9.14235	1.01340
2096.000	12.36055	1.77757	9.08839	0.97821
2097.000	12.33980	1.75247	9.12308	1.03702
2098.000	12.40959	1.67823	9.09802	1.04299
2099.000	12.39262	1.69193	9.11152	1.05276
2100.000	12.42090	1.68204	9.07489	1.06073
2101.000	12.41525	1.73061	9.10381	1.06457
2102.000	12.47369	1.72052	9.15199	1.04086
2103.000	12.45861	1.77108	9.13850	1.02127
2104.000	12.46803	1.78848	9.17704	1.02312
2105.000	12.51515	1.72606	9.08646	1.01945
2106.000	12.46426	1.78268	9.09995	1.00763
2107.000	12.49630	1.78634	9.07489	1.06662
2108.000	12.49253	1.68934	9.09802	1.07637
2109.000	12.45295	1.71871	9.14621	0.98001
2110.000	12.52457	1.70466	9.08067	1.02143
2111.000	12.49630	1.76112	9.11152	1.01153
2112.000	12.55094	1.71806	9.10766	0.98012
2113.000	12.52080	1.68334	9.06140	0.91936
2114.000	12.49442	1.79800	9.13464	0.96826
2115.000	12.48311	1.74180	8.97462	1.15728
2116.000	12.52268	1.70661	9.01126	1.03538
2117.000	12.57731	1.68491	9.02283	1.11980
2118.000	12.56601	1.65976	9.09610	0.97622
2119.000	12.57354	1.71403	9.01512	1.03930
2120.000	12.55471	1.67535	9.04019	0.99405
2121.000	12.56789	1.61512	9.00355	1.04130
2122.000	12.57542	1.60343	9.00741	1.06093
2123.000	12.58296	1.63055	9.01512	0.99805
2124.000	12.51703	1.63097	9.03633	0.92924
2125.000	12.54717	1.54346	9.04019	0.97441
2126.000	12.53964	1.57649	9.02862	1.04122
2127.000	12.48876	1.60591	9.06718	1.01165
2128.000	12.53964	1.58231	8.97269	1.09246
2129.000	12.54906	1.58031	9.01898	1.02554
2130.000	12.56601	1.57245	8.99583	1.08257
2131.000	12.53964	1.58037	9.03247	1.05496
2132.000	12.49819	1.51269	9.09031	0.97624
2133.000	12.53022	1.55132	9.00741	1.00003
2134.000	12.51515	1.53977	9.00741	1.01968
2135.000	12.49065	1.55156	8.98812	0.98437
2136.000	12.57166	1.54913	9.02090	0.94500
2137.000	12.59426	1.51407	8.99198	0.96865
2138.000	12.52457	1.53389	9.02862	0.94498
2139.000	12.54529	1.52018	9.08067	0.85450
2140.000	12.50007	1.49522	9.07104	0.93112
2141.000	12.51326	1.49126	9.05368	0.93116
2142.000	12.57354	1.51807	9.06332	0.88989
2143.000	12.51138	1.50097	9.07682	0.94485
2144.000	12.51515	1.51065	9.11923	0.93099
2145.000	12.49065	1.53021	9.05561	0.94687
2146.000	12.59049	1.54902	9.03633	0.97835
2147.000	12.55471	1.52983	9.03633	0.98424
2148.000	12.58861	1.51410	9.08646	0.98410
2149.000	12.53399	1.49696	9.06525	0.96256
2150.000	12.62815	1.48865	9.04597	0.88993
2151.000	12.60932	1.55084	9.03440	0.95871
2152.000	12.65826	1.46132	9.04597	0.93315
2153.000	12.61497	1.41500	9.00548	1.01968
2154.000	12.59614	1.47720	9.05561	0.96651
2155.000	12.54717	1.48912	9.03826	0.97834
2156.000	12.60555	1.45580	9.01512	0.97644
2157.000	12.65450	1.46522	9.06140	0.85258
2158.000	12.58484	1.48502	9.02283	0.90963
2159.000	12.59802	1.45584	9.03826	0.91549
2160.000	12.58484	1.45980	9.11923	0.91725
2161.000	12.56036	1.49098	9.00933	0.89199
2162.000	12.56036	1.50845	9.08453	0.89966
2163.000	12.59237	1.49856	9.04983	0.90367
2164.000	12.57731	1.51029	9.08646	0.89180
2165.000	12.55282	1.53566	9.04404	0.89780
2166.000	12.58672	1.52770	9.07296	0.97628
2167.000	12.53775	1.47171	9.05754	0.93508
2168.000	12.58861	1.54709	9.10381	0.95460
2169.000	12.57354	1.50643	9.05947	0.95275
2170.000	12.57542	1.48702	9.06718	0.93702
2171.000	12.59237	1.53154	9.07875	0.92717
2172.000	12.55847	1.51816	9.12115	0.98401
2173.000	12.58861	1.49470	9.04019	0.95084
2174.000	12.58861	1.49470	9.03826	0.98620
2175.000	12.58861	1.49276	9.09802	0.84463
2176.000	12.60932	1.53726	9.09995	0.92122
2177.000	12.60179	1.51791	9.05754	0.88009
2178.000	12.55094	1.48910	9.00548	0.94307
2179.000	12.53210	1.56101	9.10381	0.92318
2180.000	12.60179	1.49850	9.04790	0.93118
2181.000	12.55282	1.51237	9.04983	0.89582
2182.000	12.47369	1.47984	9.02090	0.89982
2183.000	12.58672	1.54516	9.09995	0.94283
2184.000	12.57731	1.50641	9.07682	0.87611
2185.000	12.54340	1.51825	9.10188	0.87016
2186.000	12.60367	1.51207	9.10766	0.86032
2187.000	12.55282	1.50849	9.10959	0.87603
2188.000	12.60179	1.52373	9.07104	0.92130
2189.000	12.59237	1.48304	9.12693	0.87402
2190.000	12.57542	1.48508	9.10381	0.90157
2191.000	12.59614	1.48108	9.14428	0.93682
2192.000	12.56789	1.49094	9.09417	0.95659
2193.000	12.61873	1.49065	9.10381	0.97816
2194.000	12.60932	1.50234	9.10188	0.91925
2195.000	12.54717	1.49494	9.11344	0.81121
2196.000	12.63379	1.46922	9.07682	0.90164
2197.000	12.53022	1.49892	9.09417	0.83090
2198.000	12.54717	1.52405	9.05947	0.87812
2199.000	12.58861	1.59947	9.09031	0.86822
2200.000	12.59802	1.50629	9.08839	0.90947
2201.000	12.59237	1.54512	9.09224	0.91732
2202.000	12.54340	1.48332	9.09802	0.89766
2203.000	12.55847	1.54533	9.12308	0.91724
2204.000	12.57731	1.57626	9.06525	0.90167
2205.000	12.55094	1.49298	9.08839	0.93696
2206.000	12.62250	1.56822	9.09995	0.85052
2207.000	12.66014	1.53114	9.13079	0.83277
2208.000	12.62250	1.46734	9.10766	0.87407
2209.000	12.60367	1.49655	9.15391	0.86217
2210.000	12.56601	1.47349	9.17126	0.88373
2211.000	12.56412	1.53171	9.09610	0.84071
2212.000	12.56412	1.51425	9.10573	0.90746
2213.000	12.56977	1.52586	9.11537	0.84852
2214.000	12.65073	1.50016	9.12693	0.87991
2215.000	12.59049	1.51991	9.12886	0.85831
2216.000	12.59614	1.58196	9.15199	0.89753
2217.000	12.55282	1.59193	9.12693	0.89562
2218.000	12.59802	1.55285	9.11152	0.85049
2219.000	12.59049	1.64602	9.15584	0.72864
2220.000	12.56789	1.58602	9.14043	0.85043
2221.000	12.63756	1.58947	9.11923	0.84066
2222.000	12.65638	1.61650	9.11730	0.91529
2223.000	12.61120	1.54889	9.14621	0.83274
2224.000	12.58672	1.62082	9.13079	0.86616
2225.000	12.63944	1.61661	9.09417	0.89767
2226.000	12.56977	1.65197	9.12308	0.88778
2227.000	12.61873	1.62644	9.14428	0.88773
2228.000	12.67896	1.65903	9.12308	0.85439
2229.000	12.58107	1.55295	9.13272	0.89757
2230.000	12.56789	1.60736	9.13079	0.90151
2231.000	12.52457	1.59405	9.10381	0.82891
2232.000	12.59614	1.63435	9.11152	0.83675
2233.000	12.59802	1.59359	9.16355	0.76004
2234.000	12.57166	1.57241	9.15970	0.79147
2235.000	12.63379	1.60307	9.17126	0.85624
2236.000	12.55094	1.65210	9.12115	0.77977
2237.000	12.61497	1.57991	9.20208	0.86206
2238.000	12.60744	1.57995	9.16355	0.84055
2239.000	12.56789	1.61900	9.09995	0.88587
2240.000	12.57166	1.60540	9.13657	0.84847
2241.000	12.61685	1.66137	9.11152	0.85442
2242.000	12.53775	1.59785	9.12501	0.89367
2243.000	12.56601	1.64424	9.10766	0.90942
2244.000	12.60744	1.63233	9.05368	0.81331
2245.000	12.52833	1.66194	9.09224	0.91732
2246.000	12.60179	1.64789	9.13850	0.90738
2247.000	12.62250	1.62642	9.10959	0.93887
2248.000	12.56224	1.63456	9.03055	0.87622
2249.000	12.64697	1.62626	9.11537	0.90155
2250.000	12.53022	1.69104	9.15777	0.85235
2251.000	12.61497	1.61289	9.15970	0.92500
2252.000	12.63379	1.62441	9.11730	0.87601
2253.000	12.58107	1.59952	9.16355	0.91320
2254.000	12.56601	1.62872	9.12308	0.90349
2255.000	12.53022	1.62506	9.17511	0.85034
2256.000	12.64885	1.62043	9.12501	0.84261
2257.000	12.64509	1.61658	9.11730	0.85441
2258.000	12.54717	1.59779	9.13850	0.87399
2259.000	12.56224	1.65396	9.15006	0.80327
2260.000	12.63191	1.57592	9.14813	0.87986
2261.000	12.55094	1.68702	9.19438	0.88760
2262.000	12.59802	1.63627	9.15199	0.85629
2263.000	12.55847	1.62294	9.13079	0.93882
2264.000	12.63003	1.63219	9.16162	0.86216
2265.000	12.59802	1.58195	9.18282	0.83854
2266.000	12.57542	1.48896	9.12308	0.80530
2267.000	12.60555	1.59549	9.17704	0.86408
2268.000	12.62250	1.58762	9.14235	0.87791
2269.000	12.67144	1.50392	9.14235	0.93486
2270.000	12.64509	1.49243	9.14813	0.88183
2271.000	12.63191	1.54683	9.17511	0.86409
2272.000	12.63944	1.55260	9.15199	0.82291
2273.000	12.62815	1.55461	9.10573	0.90943
2274.000	12.58672	1.53934	9.19823	0.86010
2275.000	12.61873	1.50423	9.14621	0.88183
2276.000	12.66203	1.57380	9.12501	0.94080
2277.000	12.64509	1.50989	9.11344	0.86031
2278.000	12.59614	1.53540	9.15777	0.87591
2279.000	12.62815	1.48865	9.12308	0.92313
2280.000	12.59990	1.52374	9.15777	0.91911
2281.000	12.65450	1.51953	9.11730	0.88583
2282.000	12.59614	1.51212	9.16740	0.87196
2283.000	12.59237	1.57617	9.08260	0.92716
2284.000	12.62250	1.47316	9.09610	0.92320
2285.000	12.62250	1.46540	9.11344	0.93690
2286.000	12.64509	1.50989	9.15970	0.91125
2287.000	12.68837	1.49024	9.12886	0.96631
2288.000	12.60744	1.46549	9.13850	0.83079
2289.000	12.64509	1.52541	9.11730	0.87208
2290.000	12.65638	1.53698	9.09417	0.88785
2291.000	12.62438	1.48673	9.10573	0.90943
2292.000	12.61685	1.50036	9.15584	0.88181
2293.000	12.58861	1.51022	9.12115	0.86225
2294.000	12.62062	1.56823	9.15584	0.96428
2295.000	12.60555	1.50042	9.12693	0.93097
2296.000	12.59614	1.58002	9.10381	0.93692
2297.000	12.61120	1.58575	9.17318	0.87980
2298.000	12.60367	1.54506	9.15584	0.95250
2299.000	12.57166	1.57047	9.12501	0.96436
2300.000	12.54340	1.56676	9.12693	0.91526
2301.000	12.63568	1.61858	9.08646	0.97036
2302.000	12.59237	1.57035	9.11344	0.95065
2303.000	12.67144	1.66295	9.13272	0.96041
2304.000	12.60932	1.61292	9.11344	1.01349
2305.000	12.63379	1.72139	9.14428	0.99965
2306.000	12.56601	1.67334	9.09224	0.95463
2307.000	12.59049	1.68870	9.08646	0.95857
2308.000	12.62250	1.64000	9.10959	0.98993
2309.000	12.56224	1.67918	9.09995	0.96246
2310.000	12.63379	1.64962	9.14621	1.01536
2311.000	12.65073	1.69994	9.11923	0.97616
2312.000	12.57542	1.68880	9.11344	1.02134
2313.000	12.57542	1.70238	9.15199	0.97607
2314.000	12.54717	1.64630	9.11152	0.97618
2315.000	12.63944	1.66510	9.14813	0.96823
2316.000	12.63003	1.67486	9.16162	0.97801
2317.000	12.58107	1.67906	9.15391	0.99374
2318.000	12.56601	1.69468	9.16740	0.93087
2319.000	12.58107	1.64220	9.14043	0.99181
2320.000	12.59614	1.68090	9.12501	1.02327
2321.000	12.61685	1.65555	9.17318	1.00153
2322.000	12.60932	1.63038	9.11923	1.06649
2323.000	12.58484	1.74499	9.12886	1.09591
2324.000	12.56224	1.69471	9.11152	1.03116
2325.000	12.59049	1.68288	9.14235	0.92111
2326.000	12.58672	1.69842	9.09610	1.06066
2327.000	12.56412	1.67141	9.16548	0.95051
2328.000	12.56601	1.70632	9.12693	1.07432
2329.000	12.57919	1.71787	9.14428	1.03107
2330.000	12.56789	1.75093	9.14235	1.07034
2331.000	12.54906	1.68897	9.08646	1.07051
2332.000	12.53210	1.71819	9.10573	1.02922
2333.000	12.50007	1.69900	9.14043	1.01537
2334.000	12.56977	1.74510	9.12308	1.06255
2335.000	12.54152	1.69096	9.11152	1.07633
2336.000	12.66203	1.76192	9.08453	1.07445
2337.000	12.59614	1.68090	9.09224	1.07050
2338.000	12.60555	1.71964	9.09995	1.14116
2339.000	12.51703	1.75516	9.06332	1.14324
2340.000	12.58672	1.68678	9.08260	1.11765
2341.000	12.65638	1.76972	9.13464	1.10375
2342.000	12.56036	1.71412	9.09224	1.04104
2343.000	12.61497	1.76612	9.04404	1.13938
2344.000	12.57166	1.74508	9.10188	1.12152
2345.000	12.58107	1.69652	9.09224	1.05871
2346.000	12.56224	1.70441	9.12886	1.04682
2347.000	12.59802	1.72357	9.13850	1.03109
2348.000	12.65073	1.73485	9.14621	1.14102
2349.000	12.63756	1.71748	9.02862	1.08247
2350.000	12.63379	1.72914	9.07682	1.09411
2351.000	12.63756	1.72330	9.12115	1.12342
2352.000	12.57731	1.75668	9.14043	1.06250
2353.000	12.62062	1.68656	9.08067	1.12355
2354.000	12.70907	1.73251	9.08646	1.09015
2355.000	12.61120	1.72930	9.11344	1.04490
2356.000	12.67144	1.78900	9.09610	1.14314
2357.000	12.71659	1.65296	9.13464	1.05859
2358.000	12.65450	1.74258	9.10381	1.12348
2359.000	12.60555	1.75261	9.15006	1.03105
2360.000	12.59237	1.74106	9.12308	1.08415
2361.000	12.59990	1.70416	9.11344	1.16861
2362.000	12.67520	1.72111	9.12308	1.06844
2363.000	12.69025	1.72876	9.11344	1.06847
2364.000	12.66767	1.75606	9.10766	1.09794
2365.000	12.66579	1.75414	9.12886	1.08806
2366.000	12.69778	1.68799	9.10959	1.08615
2367.000	12.67520	1.68038	9.07296	1.11768
2368.000	12.77302	1.67586	9.06332	1.12557
2369.000	12.74669	1.68960	9.05368	1.09811
2370.000	12.65638	1.67857	9.11537	1.15879
2371.000	12.69590	1.70933	9.16548	1.16648
2372.000	12.72036	1.70917	9.08067	1.16479
2373.000	12.66955	1.62806	9.13464	1.11553
2374.000	12.73352	1.73622	9.09417	1.12547
2375.000	12.71095	1.68790	9.11152	1.21378
2376.000	12.72976	1.71880	9.12115	1.19804
2377.000	12.70531	1.78295	9.05176	1.12757
2378.000	12.67332	1.84522	9.10959	1.17844
2379.000	12.75233	1.78068	9.11344	1.24126
2380.000	12.77302	1.86776	9.07296	1.27085
2381.000	12.69213	1.86447	9.04404	1.31416
2382.000	12.70154	1.95940	9.01319	1.32998
2383.000	12.72976	1.87389	8.95919	1.28893
2384.000	12.70342	1.91092	8.92060	1.25960
2385.000	12.68837	1.87420	8.88394	1.29313
2386.000	12.65826	1.91126	8.85306	1.28930
2387.000	12.65073	1.90744	8.76425	1.34660
2388.000	12.62626	1.99488	8.69085	1.48641
2389.000	12.57731	1.95841	8.65028	1.42564
2390.000	12.62250	1.95419	8.60196	1.54180
2391.000	12.64132	2.07619	8.52657	1.50868
2392.000	12.53210	2.11004	8.40665	1.42065
2393.000	12.68649	1.89554	8.52270	0.95610
2394.000	12.94214	0.24236	8.56524	1.52033
2395.000	13.01910	0.97099	8.19372	3.04927
2396.000	13.01910	2.62649	7.51858	4.85801
2397.000	13.19351	4.86353	6.92123	7.23500
2398.000	13.30028	7.39703	NaN	NaN
2399.000	13.28156	10.20310	NaN	NaN
2400.000	NaN	NaN	NaN	NaN
2401.000	NaN	NaN	NaN	NaN
2402.000	NaN	NaN	NaN	NaN
2403.000	NaN	NaN	NaN	NaN
2404.000	NaN	NaN	NaN	NaN
2405.000	NaN	NaN	NaN	NaN
2406.000	NaN	NaN	NaN	NaN
2407.000	NaN	NaN	NaN	NaN
2408.000	NaN	NaN	NaN	NaN
2409.000	NaN	NaN	NaN	NaN
2410.000	NaN	NaN	NaN	NaN
2411.000	NaN	NaN	NaN	NaN
2412.000	NaN	NaN	NaN	NaN
2413.000	NaN	NaN	NaN	NaN
2414.000	NaN	NaN	NaN	NaN
2415.000	NaN	NaN	NaN	NaN
2416.000	NaN	NaN	NaN	NaN
2417.000	NaN	NaN	NaN	NaN
2418.000	NaN	NaN	NaN	NaN
2419.000	NaN	NaN	NaN	NaN
2420.000	NaN	NaN	NaN	NaN
2421.000	NaN	NaN	NaN	NaN
2422.000	NaN	NaN	NaN	NaN
2423.000	NaN	NaN	NaN	NaN
2424.000	NaN	NaN	NaN	NaN
2425.000	NaN	NaN	NaN	NaN
2426.000	NaN	NaN	NaN	NaN
2427.000	NaN	NaN	NaN	NaN
2428.000	NaN	NaN	NaN	NaN
2429.000	NaN	NaN	NaN	NaN
2430.000	NaN	NaN	NaN	NaN
2431.000	NaN	NaN	NaN	NaN
2432.000	NaN	NaN	NaN	NaN
2433.000	NaN	NaN	NaN	NaN
2434.000	NaN	NaN	NaN	NaN
2435.000	NaN	NaN	NaN	NaN
2436.000	NaN	NaN	NaN	NaN
2437.000	NaN	NaN	NaN	NaN
2438.000	NaN	NaN	NaN	NaN
2439.000	NaN	NaN	NaN	NaN
2440.000	NaN	NaN	NaN	NaN
2441.000	NaN	NaN	NaN	NaN
2442.000	NaN	NaN	NaN	NaN
2443.000	NaN	NaN	NaN	NaN
2444.000	NaN	NaN	NaN	NaN
2445.000	NaN	NaN	NaN	NaN
2446.000	NaN	NaN	NaN	NaN
2447.000	NaN	NaN	NaN	NaN
2448.000	NaN	NaN	NaN	NaN
2449.000	NaN	NaN	NaN	NaN
2450.000	NaN	NaN	NaN	NaN
2451.000	NaN	NaN	NaN	NaN
2452.000	NaN	NaN	NaN	NaN
2453.000	NaN	NaN	NaN	NaN
2454.000	NaN	NaN	NaN	NaN
2455.000	NaN	NaN	NaN	NaN
2456.000	NaN	NaN	NaN	NaN
2457.000	NaN	NaN	NaN	NaN
2458.000	NaN	NaN	NaN	NaN
2459.000	NaN	NaN	NaN	NaN
2460.000	NaN	NaN	NaN	NaN
2461.000	NaN	NaN	NaN	NaN
2462.000	NaN	NaN	NaN	NaN
2463.000	NaN	NaN	NaN	NaN
2464.000	NaN	NaN	NaN	NaN
2465.000	NaN	NaN	NaN	NaN
2466.000	NaN	NaN	NaN	NaN
2467.000	NaN	NaN	NaN	NaN
2468.000	NaN	NaN	NaN	NaN
2469.000	NaN	NaN	NaN	NaN
2470.000	NaN	NaN	NaN	NaN
2471.000	NaN	NaN	NaN	NaN
2472.000	NaN	NaN	NaN	NaN
2473.000	NaN	NaN	NaN	NaN
2474.000	NaN	NaN	NaN	NaN
2475.000	NaN	NaN	NaN	NaN
2476.000	NaN	NaN	NaN	NaN
2477.000	NaN	NaN	NaN	NaN
2478.000	NaN	NaN	NaN	NaN
2479.000	NaN	NaN	NaN	NaN
2480.000	NaN	NaN	NaN	NaN
2481.000	NaN	NaN	NaN	NaN
2482.000	NaN	NaN	NaN	NaN
2483.000	NaN	NaN	NaN	NaN
2484.000	NaN	NaN	NaN	NaN
2485.000	NaN	NaN	NaN	NaN
2486.000	NaN	NaN	NaN	NaN
2487.000	NaN	NaN	NaN	NaN
2488.000	NaN	NaN	NaN	NaN
2489.000	NaN	NaN	NaN	NaN
2490.000	NaN	NaN	NaN	NaN
2491.000	NaN	NaN	NaN	NaN
2492.000	NaN	NaN	NaN	NaN
2493.000	NaN	NaN	NaN	NaN
2494.000	NaN	NaN	NaN	NaN
2495.000	NaN	NaN	NaN	NaN
2496.000	NaN	NaN	NaN	NaN
2497.000	NaN	NaN	NaN	NaN
2498.000	NaN	NaN	NaN	NaN
2499.000	NaN	NaN	NaN	NaN
2500.000	NaN	NaN	NaN	NaN
2501.000	NaN	NaN	NaN	NaN
2502.000	NaN	NaN	NaN	NaN
2503.000	NaN	NaN	NaN	NaN
2504.000	NaN	NaN	NaN	NaN
2505.000	NaN	NaN	NaN	NaN
2506.000	NaN	NaN	NaN	NaN
2507.000	NaN	NaN	NaN	NaN
2508.000	NaN	NaN	4.85572	8.92669
2509.000	NaN	NaN	4.71044	8.93436
2510.000	NaN	NaN	4.58082	8.65903
2511.000	NaN	NaN	4.56117	8.17022
2512.000	16.00145	9.96308	4.63778	7.72589
2513.000	13.31152	9.65524	4.67706	7.24792
2514.000	10.70565	9.07574	4.70062	6.79847
2515.000	10.59108	8.63044	4.77131	6.29294
2516.000	10.55669	8.05127	4.79487	5.83989
2517.000	10.47260	7.64259	4.84983	5.57249
2518.000	10.37316	7.27369	4.86161	5.08896
2519.000	10.33872	6.93529	4.94404	4.80308
2520.000	10.23920	6.47401	4.98721	4.56259
2521.000	10.17984	6.27794	5.01075	4.23932
2522.000	10.02654	6.08921	5.01467	4.08552
2523.000	9.89037	5.90564	5.08529	3.92141
2524.000	9.84048	5.59411	5.10491	3.95482
2525.000	9.81937	5.69542	5.27354	3.83348
2526.000	9.71568	5.62145	5.24609	3.81392
2527.000	9.68687	5.48400	5.29314	3.91421
2528.000	9.64844	5.40687	5.26962	3.79011
2529.000	9.65229	5.30377	5.33430	3.90014
2530.000	9.62154	5.19922	5.39310	3.90371
2531.000	9.64460	5.09186	5.38918	3.80712
2532.000	9.65997	5.09358	5.41857	3.70637
2533.000	9.69839	5.06381	5.39310	3.89583
2534.000	9.74449	5.04172	5.40485	3.82674
2535.000	9.73105	5.07305	5.44992	3.86786
2536.000	9.70224	5.07932	5.46167	3.82244
2537.000	9.71568	5.18027	5.46755	3.87563
2538.000	9.79441	5.15377	5.44992	3.90137
2539.000	9.72721	5.07894	5.41857	3.93903
2540.000	9.71952	5.16465	5.44796	3.95855
2541.000	9.81169	5.23905	5.41465	3.95088
2542.000	9.81745	5.16703	5.40093	4.02784
2543.000	9.78481	5.17726	5.42445	4.05134
2544.000	9.72144	5.18991	5.44404	4.05120
2545.000	9.70032	5.25830	5.44012	4.07882
2546.000	9.69071	5.22539	5.44600	4.09848
2547.000	9.68687	5.23712	5.43424	4.09265
2548.000	9.70992	5.22120	5.41661	4.08095
2549.000	9.72529	5.18012	5.44208	4.12018
2550.000	9.71568	5.21722	5.45579	4.09053
2551.000	9.71184	5.23478	5.39506	4.10671
2552.000	9.71376	5.26198	5.45188	4.07874
2553.000	9.71184	5.24062	5.41857	4.09276
2554.000	9.69839	5.23499	5.44012	4.11034
2555.000	9.68687	5.21183	5.48126	4.08051
2556.000	9.69263	5.27397	5.43228	4.14586
2557.000	9.71760	5.26969	5.46559	4.12593
2558.000	9.75217	5.28665	5.48126	4.04307
2559.000	9.65997	5.21614	5.44404	4.05909
2560.000	9.65805	5.21811	5.45188	4.03145
2561.000	9.67342	5.31511	5.43424	4.12812
2562.000	9.73297	5.25195	5.46167	4.15354
2563.000	9.69839	5.24277	5.50281	4.06854
2564.000	9.69455	5.24672	5.43424	4.11432
2565.000	9.65229	5.18124	5.47343	4.13179
2566.000	9.63691	5.25150	5.47343	4.11603
2567.000	9.63691	5.27290	5.46559	4.13381
2568.000	9.62731	5.22831	5.46951	4.14561
2569.000	9.69647	5.14166	5.49106	4.15137
2570.000	9.63884	5.16783	5.46167	4.26384
2571.000	9.62731	5.09407	5.41857	4.18339
2572.000	9.68495	5.08931	5.44600	4.17138
2573.000	9.60424	5.14112	5.43816	4.23250
2574.000	9.62923	5.16603	5.39114	4.27025
2575.000	9.61385	5.21101	5.41661	4.27007
2576.000	9.58118	5.17844	5.38722	4.32149
2577.000	9.65037	5.17155	5.43228	4.28769
2578.000	9.63884	5.10752	5.43032	4.28770
2579.000	9.59271	5.28331	5.46951	4.36619
2580.000	9.65805	5.22589	5.42837	4.28181
2581.000	9.65613	5.15979	5.43816	4.27977
2582.000	9.61962	5.26150	5.44796	4.26591
2583.000	9.73105	5.18587	5.44796	4.30530
2584.000	9.60809	5.20526	5.42641	4.30348
2585.000	9.64652	5.15020	5.45971	4.37216
2586.000	9.62731	5.26138	5.46363	4.27959
2587.000	9.61578	5.23627	5.43424	4.28570
2588.000	9.61001	5.22469	5.51456	4.19848
2589.000	9.67918	5.24696	5.45384	4.27375
2590.000	9.67534	5.20034	5.47930	4.20857
2591.000	9.70032	5.26802	5.49889	4.27343
2592.000	9.60232	5.26176	5.40093	4.22882
2593.000	9.57541	5.32831	5.41465	4.20902
2594.000	9.58502	5.39233	5.46363	4.09639
2595.000	9.55042	5.29952	5.47734	4.12388
2596.000	9.61193	5.28690	5.44796	4.12408
2597.000	9.58310	5.29902	5.42445	4.12227
2598.000	9.58502	5.23480	5.44404	4.09455
2599.000	9.61770	5.32570	5.45579	4.16540
2600.000	9.58502	5.30093	5.49693	4.15527
2601.000	9.54850	5.33651	5.45384	4.16344
2602.000	9.58887	5.27364	5.46559	4.12002
2603.000	9.54465	5.33657	5.50869	4.12957
2604.000	9.58887	5.27364	5.49497	4.14149
2605.000	9.56965	5.34590	5.48714	4.13563
2606.000	9.59463	5.33384	5.44992	4.06890
2607.000	9.58695	5.30868	5.43228	4.10843
2608.000	9.61001	5.22663	5.41465	4.11840
2609.000	9.60040	5.23262	5.44404	4.10047
2610.000	9.54465	5.29378	5.44992	4.10831
2611.000	9.57349	5.24081	5.43032	4.17149
2612.000	9.60232	5.26371	5.49106	4.14546
2613.000	9.61770	5.26542	5.41661	4.10656
2614.000	9.58118	5.29710	5.44992	4.14180
2615.000	9.54465	5.33073	5.40485	4.17954
2616.000	9.60617	5.28310	5.45775	4.13190
2617.000	9.66189	5.28029	5.44012	4.21279
2618.000	9.58502	5.31066	5.41661	4.18537
2619.000	9.55234	5.28004	5.41661	4.15582
2620.000	9.62154	5.36648	5.40485	4.20318
2621.000	9.61578	5.29462	5.40485	4.24455
2622.000	9.55619	5.27804	5.44012	4.21870
2623.000	9.61578	5.31407	5.46755	4.14956
2624.000	9.62538	5.28863	5.44012	4.21279
2625.000	9.57926	5.29713	5.41269	4.14600
2626.000	9.56388	5.26236	5.48518	4.18686
2627.000	9.55619	5.25664	5.44404	4.17730
2628.000	9.62731	5.32166	5.44796	4.25803
2629.000	9.58310	5.30874	5.44796	4.20091
2630.000	9.61193	5.30829	5.40877	4.26816
2631.000	9.58502	5.40399	5.45188	4.19104
2632.000	9.63499	5.37987	5.40877	4.26816
2633.000	9.56580	5.30123	5.41269	4.27601
2634.000	9.58502	5.31455	5.45188	4.22846
2635.000	9.62346	5.36061	5.45384	4.25996
2636.000	9.57541	5.33998	5.43424	4.22465
2637.000	9.54273	5.33465	5.43424	4.25616
2638.000	9.53119	5.32705	5.45775	4.21266
2639.000	9.58502	5.34955	5.44796	4.22652
2640.000	9.57541	5.30108	5.45775	4.27569
2641.000	9.57157	5.27391	5.35586	4.26656
2642.000	9.59848	5.30850	5.37546	4.26248
2643.000	9.59463	5.31051	5.40681	4.26817
2644.000	9.55234	5.29366	5.45188	4.25801
2645.000	9.58310	5.24066	5.39310	4.28599
2646.000	9.55042	5.27229	5.47734	4.23616
2647.000	9.49658	5.22447	5.48322	4.19082
2648.000	9.50235	5.21271	5.46559	4.18503
2649.000	9.60040	5.25401	5.45188	4.19695
2650.000	9.43503	5.25460	5.41073	4.14798
2651.000	9.48889	5.27129	5.37742	4.16003
2652.000	9.49658	5.20890	5.45579	4.22843
2653.000	9.55234	5.18471	5.44992	4.12407
2654.000	9.53696	5.23748	5.46755	4.15744
2655.000	9.44849	5.20379	5.45971	4.17522
2656.000	9.48696	5.16623	5.43424	4.11432
2657.000	9.46196	5.08679	5.46755	4.10228
2658.000	9.46965	5.24239	5.41661	4.11838
2659.000	9.43695	5.21954	5.44796	4.15166
2660.000	9.53888	5.16351	5.40877	4.12632
2661.000	9.52927	5.19673	5.37546	4.11472
2662.000	9.51581	5.17748	5.44208	4.15761
2663.000	9.57541	5.10068	5.45188	4.13982
2664.000	9.45811	5.22311	5.43032	4.12026
2665.000	9.51966	5.19688	5.41857	4.14201
2666.000	9.50235	5.21271	5.43424	4.12812
2667.000	9.49273	5.16615	5.45579	4.12403
2668.000	9.55427	5.10489	5.42641	4.12423
2669.000	9.53504	5.12270	5.44012	4.07488
2670.000	9.42926	5.18851	5.44012	4.08867
2671.000	9.41964	5.20812	5.41073	4.10857
2672.000	9.51004	5.10750	5.45384	4.12798
2673.000	9.42733	5.22747	5.39897	4.10668
2674.000	9.50812	5.11336	5.46951	4.11605
2675.000	9.49273	5.25761	5.46951	4.15940
2676.000	9.51581	5.19110	5.44404	4.09455
2677.000	9.50620	5.23795	5.49302	4.12574
2678.000	9.50620	5.18346	5.41465	4.12825
2679.000	9.47927	5.17997	5.43032	4.10056
2680.000	9.45811	5.09658	5.43424	4.07886
2681.000	9.49273	5.11943	5.43424	4.11235
2682.000	9.43695	5.23511	5.44208	4.02560
2683.000	9.46004	5.21919	5.40681	4.11451
2684.000	9.50620	5.17568	5.42837	4.10057
2685.000	9.44657	5.22718	5.44208	4.10836
2686.000	9.46004	5.14328	5.49693	4.09222
2687.000	9.41001	5.20826	5.41857	4.07305
2688.000	9.46388	5.19188	5.47930	4.08249
2689.000	9.47927	5.12158	5.49889	4.09221
2690.000	9.44657	5.10844	5.46951	4.12787
2691.000	9.44272	5.25448	5.42249	4.11637
2692.000	9.42156	5.17500	5.42641	4.12029
2693.000	9.45619	5.23871	5.43620	4.21872
2694.000	9.48119	5.14296	5.51064	4.14729
2695.000	9.41771	5.09718	5.43424	4.20692
2696.000	9.41001	5.10313	5.47930	4.11402
2697.000	9.43118	5.17875	5.46951	4.15940
2698.000	9.52927	5.14224	5.44992	4.10240
2699.000	9.43310	5.20013	5.43620	4.16948
2700.000	9.39847	5.19870	5.43032	4.12026
2701.000	9.47927	5.18192	5.48910	4.15729
2702.000	9.44272	5.23696	5.46951	4.17318
2703.000	9.43695	5.23511	5.42445	4.21684
2704.000	9.46581	5.29110	5.36566	4.25270
2705.000	9.49081	5.22067	5.40877	4.18542
2706.000	9.45426	5.24847	5.42837	4.26211
2707.000	9.45811	5.27176	5.36370	4.25665
2708.000	9.45619	5.21925	5.38330	4.22697
2709.000	9.47350	5.31238	5.38918	4.21314
2710.000	9.54273	5.24906	5.39701	4.21506
2711.000	9.49466	5.28093	5.34998	4.21538
2712.000	9.55042	5.41426	5.41073	4.13813
2713.000	9.57349	5.31278	5.40681	4.20120
2714.000	9.48696	5.32190	5.39701	4.16777
2715.000	9.48696	5.32774	5.44992	4.14377
2716.000	9.50620	5.44024	5.39114	4.19343
2717.000	9.54850	5.43179	5.43424	4.10250
2718.000	9.50620	5.37023	5.40289	4.15000
2719.000	9.56388	5.28764	5.40877	4.21103
2720.000	9.49081	5.31211	5.40681	4.15983
2721.000	9.50235	5.35084	5.41857	4.19915
2722.000	9.50427	5.27300	5.41857	4.20309
2723.000	9.49466	5.23034	5.38134	4.17576
2724.000	9.56196	5.33241	5.43032	4.17543
2725.000	9.52350	5.25519	5.41465	4.16371
2726.000	9.47158	5.28517	5.41857	4.11640
2727.000	9.54273	5.26852	5.39701	4.16186
2728.000	9.55427	5.31502	5.39897	4.18155
2729.000	9.52927	5.43210	5.39506	4.17961
2730.000	9.57733	5.34967	5.43620	4.19508
2731.000	9.57541	5.33414	5.42837	4.13801
2732.000	9.52735	5.32711	5.36566	4.21330
2733.000	9.48119	5.26362	5.35194	4.19567
2734.000	9.29453	5.27228	5.27158	4.16074
2735.000	9.16933	5.28388	5.23237	4.03880
2736.000	8.96304	5.25378	5.05587	3.89594
2737.000	8.78163	5.29145	4.83217	3.79661
2738.000	8.51303	5.16252	4.65938	3.63565
2739.000	8.18790	4.83263	4.43149	3.58938
2740.000	7.88746	4.70704	4.27424	3.53084
2741.000	7.63708	4.55899	3.99497	3.38773
2742.000	7.29111	4.40764	3.81196	3.34099
2743.000	7.01473	4.14522	3.65841	3.13378
2744.000	6.86083	4.04242	3.45162	3.02161
2745.000	6.66587	4.02045	3.12452	2.85023
2746.000	6.43952	3.94948	2.98258	2.82881
2747.000	6.17390	3.74081	2.84060	2.83709
2748.000	6.00579	3.69667	2.65913	2.91681
2749.000	5.92365	3.70510	2.48748	2.82601
2750.000	5.68297	3.56669	2.36908	2.91548
2751.000	5.60661	3.54152	2.22696	2.78489
2752.000	5.50673	3.57368	2.09864	2.71173
2753.000	5.43032	3.57019	1.90513	2.58904
2754.000	5.25198	3.46860	1.79848	2.59713
2755.000	5.06372	3.34127	1.64837	2.55566
2756.000	5.00879	3.36130	1.45279	2.65910
2757.000	4.81450	3.27930	1.25915	2.47273
2758.000	4.61028	3.23480	1.09908	2.46294
2759.000	4.54153	3.13230	1.00026	2.49478
2760.000	4.38432	3.03605	0.82238	2.43336
2761.000	4.26638	3.08796	0.70773	2.33810
2762.000	4.17199	3.09427	0.57133	2.34412
2763.000	4.05005	3.02548	0.48831	2.39777
2764.000	3.90446	2.95872	0.44284	2.37793
2765.000	3.87887	2.95485	0.38156	2.27268
2766.000	3.77850	2.93540	0.32620	2.32235
2767.000	3.74503	2.87214	0.28271	2.39584
2768.000	3.77259	2.87205	0.25503	2.34223
2769.000	3.77456	2.89977	0.25305	2.33826
2770.000	3.78046	2.78490	0.28073	2.37201
2771.000	3.82377	2.84416	0.24515	2.35812
2772.000	3.87494	2.90735	0.22933	2.26080
2773.000	3.87494	2.88557	0.28864	2.31442
2774.000	3.92020	2.92501	0.27480	2.28065
2775.000	3.96545	2.97236	0.25701	2.40181
2776.000	3.97136	2.90701	0.26096	2.39784
2777.000	4.02251	2.92861	0.28864	2.35811
2778.000	3.98316	3.03563	0.30050	2.30051
2779.000	4.07956	3.01548	0.22340	2.30847
2780.000	4.06775	3.02344	0.26294	2.28661
2781.000	4.06775	3.04719	0.21747	2.29655
2782.000	3.93594	2.98632	0.23131	2.23497
2783.000	3.98906	2.97425	0.19770	2.33429
2784.000	3.96742	2.95454	0.20165	2.27073
2785.000	3.94578	2.97639	0.20561	2.22107
2786.000	3.85132	2.92327	0.19177	2.28464
2787.000	3.89265	2.99241	0.18188	2.26875
2788.000	3.83754	2.92332	0.16607	2.23498
2789.000	3.82574	2.94909	0.16014	2.24492
2790.000	3.87691	2.89744	0.15223	2.21512
2791.000	3.86116	2.89552	0.17002	2.22108
2792.000	3.88281	2.92910	0.16804	2.22902
2793.000	3.85526	2.97275	0.16804	2.32039
2794.000	3.84148	2.94310	0.13641	2.17142
2795.000	3.77850	2.81065	0.17398	2.23300
2796.000	3.81589	2.84617	0.16211	2.31841
2797.000	3.86707	2.91925	0.22538	2.25881
2798.000	3.82770	2.89167	0.18979	2.26279
2799.000	3.77653	2.91956	0.19375	2.27073
2800.000	3.90642	2.92308	0.11071	2.21910
2801.000	3.92020	2.85968	0.16804	2.32834
2802.000	3.84739	2.91536	0.15618	2.20916
2803.000	3.87494	2.94694	0.15816	2.25088
2804.000	3.87494	2.91329	0.18584	2.27868
2805.000	3.89265	2.96470	0.18386	2.38792
2806.000	3.89659	2.95677	0.18386	2.30450
2807.000	3.91823	2.95075	0.15025	2.30848
2808.000	3.93988	3.00808	0.22735	2.28265
2809.000	3.96349	2.95455	0.17200	2.29259
2810.000	3.92217	2.97647	0.12850	2.32040
2811.000	3.94381	2.98431	0.14630	2.25882
2812.000	3.82967	3.00055	0.17200	2.24889
2813.000	3.88478	2.98254	0.15618	2.24094
2814.000	3.98119	3.09896	0.07513	2.22506
2815.000	3.98316	3.01979	0.18584	2.27074
2816.000	3.90446	3.02008	0.19770	2.24292
2817.000	3.98119	2.98022	0.15421	2.25286
2818.000	3.92217	2.99824	0.14827	2.27868
2819.000	3.95758	2.99218	0.18386	2.26080
2820.000	3.91823	2.98440	0.12850	2.24492
2821.000	3.92610	3.00021	0.17002	2.20717
2822.000	3.96349	3.02580	0.11862	2.24691
2823.000	3.90642	2.96465	0.13444	2.23896
2824.000	3.85919	2.98857	0.09885	2.26280
2825.000	3.95562	3.04760	0.10083	2.17539
2826.000	3.98710	2.99603	0.14234	2.15553
2827.000	3.93397	3.02789	0.10478	2.10785
2828.000	3.95168	3.01397	0.13641	2.17539
2829.000	3.99103	3.00195	0.12850	2.13566
2830.000	3.93594	3.06549	0.07315	2.16149
2831.000	3.96545	3.07923	0.07315	2.14162
2832.000	3.93201	3.01998	0.05733	2.15354
2833.000	3.92020	3.05367	0.11467	2.09791
2834.000	3.91233	3.05766	0.09292	2.01844
2835.000	3.87297	3.06572	0.12060	2.09394
2836.000	3.90052	3.01020	0.12257	2.01645
2837.000	3.94775	3.03774	0.05931	2.06215
2838.000	3.84935	3.00444	0.10083	2.03235
2839.000	3.87494	2.98060	0.09885	2.09195
2840.000	3.94971	3.01992	0.11269	2.03036
2841.000	3.88871	2.98055	0.08699	2.06613
2842.000	3.93201	2.97841	0.06524	2.01248
2843.000	3.88281	3.03797	0.04547	2.03632
2844.000	3.91626	3.01014	0.06326	2.03632
2845.000	3.93397	3.00414	0.02372	1.97274
2846.000	3.92020	2.93689	0.08501	2.06613
2847.000	3.93397	3.00216	0.09687	1.98069
2848.000	3.92413	3.00022	0.05931	2.08997
2849.000	3.96742	2.91099	0.05338	2.07805
2850.000	3.86313	2.95094	0.07315	2.10785
2851.000	3.92610	2.95666	0.06129	2.12573
2852.000	3.90839	3.01611	0.10280	2.15553
2853.000	3.91823	2.94085	0.07513	2.12970
2854.000	3.89265	2.86175	0.14827	2.21512
2855.000	3.93791	2.92099	0.09292	2.12970
2856.000	3.87691	2.82221	0.10676	2.14560
2857.000	3.93004	2.90914	0.11467	2.20519
2858.000	3.86707	2.81432	0.06920	2.16348
2859.000	3.83558	2.89758	0.05733	2.19129
2860.000	3.93397	2.90715	0.10083	2.20718
2861.000	3.91036	2.93692	0.14037	2.23697
2862.000	3.95168	3.01001	0.15025	2.23101
2863.000	3.91626	2.93690	0.11862	2.21115
2864.000	3.89462	2.93104	0.07908	2.22903
2865.000	3.85329	2.90346	0.08106	2.22506
2866.000	3.93004	2.92695	0.04943	2.22705
2867.000	3.92807	2.88143	0.12257	2.16943
2868.000	3.87887	2.90734	0.13048	2.25286
2869.000	3.91626	2.88543	0.11071	2.21711
2870.000	3.91823	2.87750	0.11269	2.23102
2871.000	3.89068	2.95283	0.12060	2.20320
2872.000	3.90249	2.84588	0.04745	2.06811
2873.000	3.92807	2.96259	0.03756	2.15950
2874.000	3.90249	2.96862	0.05140	2.08401
2875.000	3.92413	2.95667	0.07513	2.16546
2876.000	3.93988	2.96453	0.04745	2.09792
2877.000	3.93201	3.01206	0.06524	2.12374
2878.000	3.92610	3.02792	0.04152	2.19129
2879.000	3.91036	3.00422	0.10676	2.04626
2880.000	3.84935	2.95099	0.12060	2.09195
2881.000	3.89659	2.94489	0.05338	2.07408
2882.000	3.94775	3.00607	0.03163	2.03434
2883.000	3.90839	3.04382	0.08501	1.98864
2884.000	3.91430	2.96066	0.12257	2.06811
2885.000	3.86116	2.99054	-0.00198	2.04825
2886.000	3.90446	2.97059	0.05931	2.00652
2887.000	3.84542	2.97674	0.08303	1.98864
2888.000	3.87691	2.95486	0.09687	2.07010
2889.000	3.88084	2.95484	0.06326	2.09593
2890.000	3.82574	2.90950	0.04152	2.09792
2891.000	3.90446	2.92902	0.04547	2.04427
2892.000	3.86903	2.99051	0.09292	2.07209
2893.000	3.92020	3.06752	0.09885	2.01049
2894.000	3.86313	2.91729	0.05733	2.09196
2895.000	3.91233	2.98442	0.07710	2.13964
2896.000	3.84739	2.93714	0.06722	2.12374
2897.000	3.93004	2.90716	0.08501	2.10586
2898.000	3.87887	2.93901	0.11862	2.07010
2899.000	3.88871	2.86573	0.15816	2.08599
2900.000	3.87100	2.90538	0.08303	2.01248
2901.000	3.88871	2.97659	0.12850	2.09593
2902.000	3.85723	2.88563	0.11071	2.07407
2903.000	3.87494	2.94100	0.09490	2.05023
2904.000	3.83164	2.88176	0.10874	2.08401
2905.000	3.88675	2.86573	0.13444	2.09195
2906.000	3.83754	2.84610	0.10676	2.00453
2907.000	3.87887	2.79844	0.16211	2.09394
2908.000	3.83754	2.85996	0.13246	2.10586
2909.000	3.86510	2.83017	0.08106	2.08599
2910.000	3.84345	2.85400	0.10874	2.08003
2911.000	3.89659	2.93697	0.13641	2.12771
2912.000	3.78834	2.85814	0.16014	2.15950
2913.000	3.86313	2.86779	0.15816	2.10188
2914.000	3.89068	2.82612	0.09490	2.10189
2915.000	3.87691	2.90734	0.14432	2.04427
2916.000	3.83164	2.82038	0.12060	2.08202
2917.000	3.78637	2.80270	0.11071	2.05420
2918.000	3.80605	2.77293	0.15025	2.03831
2919.000	3.87100	2.82025	0.13048	2.02837
2920.000	3.80015	2.82840	0.17200	2.00850
2921.000	3.74897	2.73944	0.18781	1.98465
2922.000	3.81393	2.82241	0.16804	2.08201
2923.000	3.86510	2.78660	0.12653	2.14162
2924.000	3.79621	2.84029	0.14630	2.05619
2925.000	3.75094	2.76122	0.16014	2.05420
2926.000	3.79818	2.81256	0.10676	2.01844
2927.000	3.83164	2.80849	0.13641	2.02837
2928.000	3.77259	2.76512	0.19375	2.02042
2929.000	3.74503	2.79689	0.18781	2.03234
2930.000	3.79424	2.84822	0.17002	2.03830
2931.000	3.80212	2.77294	0.15421	2.01844
2932.000	3.80999	2.79866	0.14630	2.09592
2933.000	3.79621	2.82643	0.11269	2.01248
2934.000	3.84542	2.81835	0.17200	2.00651
2935.000	3.72731	2.80883	0.17991	2.05022
2936.000	3.85723	2.93117	0.12257	2.02043
2937.000	3.78834	2.83834	0.13839	2.02440
2938.000	3.81589	2.87389	0.13839	1.99459
2939.000	3.83164	2.96095	0.14037	2.00055
2940.000	3.83951	2.87381	0.17398	2.01843
2941.000	3.83558	2.93520	0.17595	2.00055
2942.000	3.83754	2.93915	0.16211	2.01843
2943.000	3.82180	2.89763	0.13641	1.97870
2944.000	3.85526	2.85594	0.14432	2.05023
2945.000	3.92020	3.00023	0.14037	2.05221
2946.000	3.83754	3.02626	0.15223	2.02241
2947.000	3.85723	2.91731	0.15421	1.97472
2948.000	3.82574	2.97285	0.18584	2.00651
2949.000	3.87100	2.91132	0.11664	2.02837
2950.000	3.85526	3.01828	0.14630	2.05023
2951.000	3.87100	2.92518	0.17595	2.08599
2952.000	3.87887	2.97860	0.13839	2.08003
2953.000	3.85329	2.94306	0.15223	2.07804
2954.000	3.89265	3.00825	0.13444	2.07606
2955.000	3.82770	3.00254	0.11862	2.03235
2956.000	3.83951	2.95894	0.14630	2.10188
2957.000	3.86903	3.00041	0.18188	2.02638
2958.000	3.87887	3.02017	0.18188	2.02042
2959.000	3.79031	2.98683	0.16804	2.10387
2960.000	3.81196	2.95706	0.15025	2.13566
2961.000	3.90052	2.96665	0.17595	2.06811
2962.000	3.87494	2.97268	0.11664	2.07606
2963.000	3.86116	3.00440	0.17793	2.04426
2964.000	3.87100	2.93112	0.11467	2.07606
2965.000	3.88675	2.92513	0.17200	2.12771
2966.000	3.83951	2.94905	0.12257	2.06612
2967.000	3.86313	2.98658	0.16014	2.08400
2968.000	3.84148	2.94904	0.14432	2.01645
2969.000	3.78637	2.97497	0.15223	2.09195
2970.000	3.82967	2.89562	0.19572	2.07804
2971.000	3.79818	2.86405	0.15421	2.09195
2972.000	3.79227	2.94327	0.19375	2.07009
2973.000	3.84345	2.97081	0.14630	2.10188
2974.000	3.84148	2.96290	0.13048	2.05619
2975.000	3.90642	2.92110	0.16211	2.04029
2976.000	3.86313	2.96876	0.21945	2.09790
2977.000	3.82180	2.89565	0.16211	2.00055
2978.000	3.87297	3.01623	0.15816	2.05619
2979.000	3.81589	2.94913	0.11862	1.99261
2980.000	3.83164	3.00648	0.17595	1.99658
2981.000	3.84345	2.96883	0.17398	1.98664
2982.000	3.83558	2.95104	0.15025	2.04824
2983.000	3.80802	2.94915	0.16014	2.06215
2984.000	3.87494	2.96476	0.15618	2.04228
2985.000	3.84935	2.93911	0.15618	2.01247
2986.000	3.86116	2.92323	0.21352	1.99657
2987.000	3.84739	2.92922	0.22735	2.01048
2988.000	3.78637	2.88191	0.18584	2.06016
2989.000	3.78243	2.83440	0.13444	2.06215
2990.000	3.83164	2.96293	0.17002	1.96081
2991.000	3.80605	2.88184	0.17793	1.95684
2992.000	3.81983	2.85606	0.16014	2.03234
2993.000	3.80802	2.86006	0.21352	1.96478
2994.000	3.75094	2.86420	0.19968	2.03433
2995.000	3.88281	2.88752	0.21945	2.03631
2996.000	3.86707	2.87768	0.16014	2.11976
2997.000	3.77850	2.84233	0.15816	1.97671
2998.000	3.77653	2.91362	0.18584	2.08003
2999.000	3.77259	2.81859	0.19177	1.93498
3000.000	3.81589	2.85013	0.21945	2.00452
3001.000	3.82180	2.88179	0.13641	2.03235
3002.000	3.84345	2.86588	0.19177	1.95683
3003.000	3.83951	2.83619	0.18386	2.01645
3004.000	3.83951	2.88767	0.13246	1.99857
3005.000	3.75684	2.85230	0.25701	1.95484
3006.000	3.76865	2.89385	0.17991	2.01843
3007.000	3.82967	2.84414	0.24712	1.96080
3008.000	3.78243	2.84628	0.17002	1.97671
3009.000	3.78046	2.76113	0.18781	1.98664
3010.000	3.87494	2.83211	0.15223	2.05619
3011.000	3.79818	2.74721	0.22735	2.00452
3012.000	3.80802	2.78283	0.20758	2.02240
3013.000	3.84739	2.84606	0.20165	2.02638
3014.000	3.85526	2.88960	0.17595	1.96081
3015.000	3.88281	2.88356	0.17002	2.04625
3016.000	3.87297	2.87172	0.20165	2.00055
3017.000	3.82770	2.85405	0.14827	1.98466
3018.000	3.81786	2.92338	0.16014	1.99857
3019.000	3.78440	2.95319	0.14630	2.02241
3020.000	3.87494	2.84003	0.18386	1.97671
3021.000	3.81786	2.82438	0.17793	2.04426
3022.000	3.71550	2.79501	0.16014	2.06215
3023.000	3.80605	2.88976	0.19770	2.00055
3024.000	3.81196	2.90756	0.15816	2.00254
3025.000	3.83361	2.90551	0.15816	2.01844
3026.000	3.83164	2.89562	0.15816	1.99857
3027.000	3.83558	2.85996	0.19572	1.95087
3028.000	3.83951	2.87381	0.20956	2.03035
3029.000	3.80408	2.92541	0.22142	1.98862
3030.000	3.85132	2.93713	0.17793	2.01843
3031.000	3.81196	2.88974	0.20363	2.08797
3032.000	3.81589	2.91547	0.16804	2.06016
3033.000	3.82967	2.92532	0.19968	2.00055
3034.000	3.82770	2.94513	0.16211	2.03433
3035.000	3.84542	2.87577	0.16014	2.02241
3036.000	3.86313	2.89551	0.20561	2.01843
3037.000	3.85919	2.91730	0.18979	2.02042
3038.000	3.80802	2.89372	0.20363	1.94690
3039.000	3.77259	2.87601	0.16804	2.04824
3040.000	3.85329	2.89158	0.12060	1.99062
3041.000	3.85526	2.89950	0.15223	2.06016
3042.000	3.86707	2.97073	0.12850	2.02639
3043.000	3.83558	2.91540	0.18781	1.99856
3044.000	3.82180	2.95901	0.13246	2.01049
3045.000	3.84345	2.90944	0.18781	1.97472
3046.000	3.79818	2.88187	0.18188	2.00254
3047.000	3.85526	2.90742	0.09885	2.05420
3048.000	3.77850	2.90768	0.20363	2.05817
3049.000	3.91036	2.99433	0.18781	2.01247
3050.000	3.85132	2.97078	0.14630	2.01248
3051.000	3.83951	2.94113	0.18781	2.02241
3052.000	3.84542	2.90547	0.15223	2.01844
3053.000	3.84148	2.98665	0.14234	1.97075
3054.000	3.89855	2.94290	0.15618	1.94491
3055.000	3.84148	2.98665	0.11269	1.95287
3056.000	3.85723	2.99254	0.13444	1.96081
3057.000	3.87297	2.93111	0.14234	1.96280
3058.000	3.87494	2.98653	0.13839	1.94889
3059.000	3.85723	2.97076	0.15816	1.97472
3060.000	3.89462	3.06564	0.15223	1.95882
3061.000	3.84542	2.94705	0.13444	1.98267
3062.000	3.88675	2.87959	0.12850	1.95088
3063.000	3.85919	2.99055	0.11269	1.93300
3064.000	3.81786	2.94120	0.16804	2.05221
3065.000	3.85329	2.91336	0.15223	1.99658
3066.000	3.83754	2.92530	0.15223	2.08003
3067.000	3.83558	2.90946	0.13839	1.99062
3068.000	3.84345	2.95497	0.15618	1.98466
3069.000	3.84148	2.97082	0.16014	2.01844
3070.000	3.85723	2.96482	0.13839	1.98863
3071.000	3.92217	2.96657	0.19177	1.99459
3072.000	3.88675	2.95086	0.10083	1.93896
3073.000	3.82574	2.92336	0.12060	2.03036
3074.000	3.81983	2.98079	0.12257	2.01645
3075.000	3.82574	2.89564	0.11467	1.99062
3076.000	3.90249	2.90132	0.13641	1.98466
3077.000	3.87494	2.87369	0.15421	2.05221
3078.000	3.82180	2.88971	0.10676	2.02440
3079.000	3.84345	2.90746	0.13048	2.06811
3080.000	3.76275	2.85625	0.11467	2.01844
3081.000	3.83754	2.87382	0.15618	2.02638
3082.000	3.83558	2.91936	0.13641	2.07606
3083.000	3.81786	2.85408	0.17002	2.04625
3084.000	3.86510	2.90342	0.20758	2.06612
3085.000	3.86707	2.93311	0.08897	2.05818
3086.000	3.81196	2.85212	0.14234	2.10387
3087.000	3.83754	2.86194	0.12850	2.07407
3088.000	3.80802	2.94519	0.09094	2.08997
3089.000	3.77456	2.96115	0.14234	2.18532
3090.000	3.80999	2.97884	0.10874	2.14162
3091.000	3.76275	2.86813	0.12653	2.17937
3092.000	3.75487	2.87013	0.12257	2.16943
3093.000	3.82377	2.81248	0.14630	2.12573
3094.000	3.83361	3.00648	0.18584	2.19724
3095.000	3.87297	2.86776	0.19770	2.17936
3096.000	3.76472	2.86020	0.14234	2.18731
3097.000	3.77062	2.95324	0.14630	2.18731
3098.000	3.77456	2.93343	0.19177	2.17737
3099.000	3.82377	2.91346	0.25503	2.20716
3100.000	3.78243	2.96112	0.16607	2.16546
3101.000	3.78243	2.93736	0.17002	2.23101
3102.000	3.77653	2.87204	0.16211	2.23896
3103.000	3.77653	2.97698	0.15421	2.18532
3104.000	3.80605	2.93530	0.25899	2.29456
3105.000	3.76275	2.96713	0.17398	2.23101
3106.000	3.74503	2.91373	0.18386	2.28067
3107.000	3.84739	3.00247	0.23526	2.20915
3108.000	3.80408	2.99272	0.19375	2.28662
3109.000	3.83361	2.99658	0.22340	2.24689
3110.000	3.81589	3.04811	0.14432	2.28266
3111.000	3.90249	3.11311	0.17991	2.23895
3112.000	3.88281	3.11516	0.16014	2.19923
3113.000	3.85919	3.08754	0.22340	2.24491
3114.000	3.80802	3.09168	0.17991	2.19525
3115.000	3.80015	3.09171	0.19177	2.20518
3116.000	3.81983	3.03424	0.17595	2.23101
3117.000	3.81983	3.04017	0.16211	2.24094
3118.000	3.86313	3.04398	0.15816	2.23697
3119.000	3.83361	3.00252	0.12850	2.21512
3120.000	3.85329	3.04204	0.11269	2.14957
3121.000	3.88871	3.09139	0.13839	2.19923
3122.000	3.91036	3.14870	0.14432	2.16148
3123.000	3.89265	3.09533	0.13048	2.15751
3124.000	3.83164	3.15295	0.13444	2.09593
3125.000	3.87691	3.10924	0.14630	2.17340
3126.000	3.86707	3.16073	0.14827	2.14758
3127.000	3.88871	3.27541	0.18584	2.18929
3128.000	3.93397	3.22182	0.14037	2.16149
3129.000	3.87297	3.18050	0.16014	2.14162
3130.000	3.92610	3.25152	0.15421	2.11380
3131.000	3.92413	3.22977	0.12455	2.15155
3132.000	3.95168	3.24945	0.14432	2.19724
3133.000	3.97136	3.26915	0.12653	2.16943
3134.000	3.95365	3.26526	0.14037	2.12573
3135.000	4.01661	3.33029	0.14630	2.26478
3136.000	3.99693	3.23542	0.12455	2.26478
3137.000	3.95562	3.25734	0.16804	2.33231
3138.000	3.96349	3.29490	0.14234	2.32834
3139.000	3.95758	3.22964	0.17793	2.38792
3140.000	3.98119	3.30670	0.09885	2.39190
3141.000	3.95168	3.22175	0.16014	2.34820
3142.000	3.98906	3.17214	0.10676	2.26478
3143.000	3.94184	3.16243	0.16014	2.37005
3144.000	3.99103	3.27699	0.08897	2.34225
3145.000	4.03038	3.27881	0.13641	2.37204
3146.000	4.05005	3.31037	0.11071	2.40977
3147.000	4.11889	3.39117	0.14630	2.46339
3148.000	4.06382	3.41909	0.04745	2.40580
3149.000	4.16806	3.44039	0.01582	2.46141
3150.000	4.17986	3.46011	0.00000	2.47729
3151.000	4.12086	3.54932	-0.10280	2.52097
3152.000	4.21526	3.66352	-0.18979	2.70560
3153.000	4.42756	3.70003	-0.35586	3.06671
3154.000	4.81843	2.40523	-0.38551	4.01596
3155.000	4.94796	3.44061	-0.50412	5.43646
3156.000	4.95974	4.78919	-0.52982	7.15409
3157.000	4.90675	6.66937	-0.84017	8.75929
3158.000	5.02448	8.64186	-1.43105	10.53378
3159.000	13.94451	8.69087	NaN	NaN
3160.000	NaN	NaN	NaN	NaN
3161.000	NaN	NaN	NaN	NaN
3162.000	NaN	NaN	NaN	NaN
3163.000	NaN	NaN	NaN	NaN
3164.000	NaN	NaN	NaN	NaN
3165.000	NaN	NaN	NaN	NaN
3166.000	NaN	NaN	NaN	NaN
3167.000	NaN	NaN	NaN	NaN
3168.000	NaN	NaN	NaN	NaN
3169.000	NaN	NaN	NaN	NaN
3170.000	NaN	NaN	NaN	NaN
3171.000	NaN	NaN	NaN	NaN
3172.000	NaN	NaN	NaN	NaN
3173.000	NaN	NaN	NaN	NaN
3174.000	NaN	NaN	NaN	NaN
3175.000	NaN	NaN	NaN	NaN
3176.000	NaN	NaN	NaN	NaN
3177.000	NaN	NaN	NaN	NaN
3178.000	NaN	NaN	NaN	NaN
3179.000	NaN	NaN	NaN	NaN
3180.000	NaN	NaN	NaN	NaN
3181.000	NaN	NaN	NaN	NaN
3182.000	NaN	NaN	NaN	NaN
3183.000	NaN	NaN	NaN	NaN
3184.000	NaN	NaN	NaN	NaN
3185.000	NaN	NaN	NaN	NaN
3186.000	NaN	NaN	NaN	NaN
3187.000	NaN	NaN	NaN	NaN
3188.000	NaN	NaN	NaN	NaN
3189.000	NaN	NaN	NaN	NaN
3190.000	NaN	NaN	NaN	NaN
3191.000	NaN	NaN	NaN	NaN
3192.000	NaN	NaN	NaN	NaN
3193.000	NaN	NaN	NaN	NaN
3194.000	NaN	NaN	NaN	NaN
3195.000	NaN	NaN	NaN	NaN
3196.000	NaN	NaN	NaN	NaN
3197.000	NaN	NaN	NaN	NaN
3198.000	NaN	NaN	NaN	NaN
3199.000	NaN	NaN	NaN	NaN
3200.000	NaN	NaN	NaN	NaN
3201.000	NaN	NaN	NaN	NaN
3202.000	NaN	NaN	NaN	NaN
3203.000	NaN	NaN	NaN	NaN
3204.000	NaN	NaN	NaN	NaN
3205.000	NaN	NaN	NaN	NaN
3206.000	NaN	NaN	NaN	NaN
3207.000	NaN	NaN	NaN	NaN
3208.000	NaN	NaN	NaN	NaN
3209.000	NaN	NaN	NaN	NaN
3210.000	NaN	NaN	NaN	NaN
3211.000	NaN	NaN	NaN	NaN
3212.000	NaN	NaN	NaN	NaN
3213.000	NaN	NaN	NaN	NaN
3214.000	NaN	NaN	NaN	NaN
3215.000	NaN	NaN	NaN	NaN
3216.000	NaN	NaN	NaN	NaN
3217.000	NaN	NaN	NaN	NaN
3218.000	NaN	NaN	NaN	NaN
3219.000	NaN	NaN	NaN	NaN
3220.000	NaN	NaN	NaN	NaN
3221.000	NaN	NaN	NaN	NaN
3222.000	NaN	NaN	NaN	NaN
3223.000	NaN	NaN	NaN	NaN
3224.000	NaN	NaN	NaN	NaN
3225.000	NaN	NaN	NaN	NaN
3226.000	NaN	NaN	NaN	NaN
3227.000	NaN	NaN	NaN	NaN
3228.000	NaN	NaN	NaN	NaN
3229.000	NaN	NaN	NaN	NaN
3230.000	NaN	NaN	NaN	NaN
3231.000	NaN	NaN	NaN	NaN
3232.000	NaN	NaN	NaN	NaN
3233.000	NaN	NaN	NaN	NaN
3234.000	NaN	NaN	NaN	NaN
3235.000	NaN	NaN	NaN	NaN
3236.000	NaN	NaN	NaN	NaN
3237.000	NaN	NaN	NaN	NaN
3238.000	NaN	NaN	NaN	NaN
3239.000	NaN	NaN	NaN	NaN
3240.000	NaN	NaN	NaN	NaN
3241.000	NaN	NaN	NaN	NaN
3242.000	NaN	NaN	NaN	NaN
3243.000	NaN	NaN	NaN	NaN
3244.000	NaN	NaN	NaN	NaN
3245.000	NaN	NaN	NaN	NaN
3246.000	NaN	NaN	NaN	NaN
3247.000	NaN	NaN	NaN	NaN
3248.000	NaN	NaN	NaN	NaN
3249.000	NaN	NaN	NaN	NaN
3250.000	NaN	NaN	NaN	NaN
3251.000	NaN	NaN	NaN	NaN
3252.000	NaN	NaN	NaN	NaN
3253.000	NaN	NaN	NaN	NaN
3254.000	NaN	NaN	NaN	NaN
3255.000	NaN	NaN	NaN	NaN
3256.000	NaN	NaN	NaN	NaN
3257.000	NaN	NaN	NaN	NaN
3258.000	NaN	NaN	NaN	NaN
3259.000	NaN	NaN	NaN	NaN
3260.000	NaN	NaN	NaN	NaN
3261.000	NaN	NaN	NaN	NaN
3262.000	NaN	NaN	NaN	NaN
3263.000	NaN	NaN	NaN	NaN
3264.000	NaN	NaN	NaN	NaN
3265.000	NaN	NaN	NaN	NaN
3266.000	NaN	NaN	NaN	NaN
3267.000	NaN	NaN	NaN	NaN
3268.000	NaN	NaN	NaN	NaN
3269.000	NaN	NaN	NaN	NaN
3270.000	NaN	NaN	NaN	NaN
3271.000	NaN	NaN	NaN	NaN
3272.000	NaN	NaN	-0.61482	8.76943
3273.000	1.82021	12.24193	-0.33806	9.14055
3274.000	3.75881	11.29005	-0.04745	9.09415
3275.000	5.59094	9.80307	0.01186	8.32052
3276.000	5.54786	9.10247	-0.03559	7.66109
3277.000	5.43032	8.43879	0.03559	7.05449
3278.000	5.33430	7.70418	0.10083	6.45807
3279.000	5.14413	6.98732	0.10676	5.86221
3280.000	5.05587	6.33921	0.13246	5.27889
3281.000	4.95385	5.74042	0.17398	4.74781
3282.000	4.85769	5.21877	0.17002	4.33661
3283.000	4.77524	4.50492	0.22933	3.77443
3284.000	4.63778	3.99900	0.26492	3.28688
3285.000	4.50616	3.63445	0.32818	2.87625
3286.000	4.40594	3.25350	0.31236	2.42165
3287.000	4.33518	2.76715	0.34597	2.01443
3288.000	4.31159	2.51781	0.38156	1.76205
3289.000	4.34108	2.23057	0.48633	1.37439
3290.000	4.41577	1.97878	0.44284	1.07215
3291.000	4.38432	1.78468	0.46459	0.92100
3292.000	4.35877	1.47157	0.43889	0.62663
3293.000	4.39415	1.37635	0.52389	0.44163
3294.000	4.33125	1.44783	0.54959	0.39587
3295.000	4.35877	1.49734	0.55157	0.38195
3296.000	4.34894	1.62620	0.54564	0.53711
3297.000	4.37843	2.00067	0.57727	0.75193
3298.000	4.39218	2.17298	0.62273	0.96672
3299.000	4.35484	2.22657	0.60889	1.13973
3300.000	4.36074	2.23843	0.53575	1.41613
3301.000	4.31553	2.28016	0.60296	1.31869
3302.000	4.30373	2.27822	0.52784	1.30479
3303.000	4.31356	2.24253	0.53971	1.36444
3304.000	4.30373	2.30793	0.52587	1.32268
3305.000	4.26048	2.30409	0.53773	1.27496
3306.000	4.34108	2.40287	0.55750	1.28291
3307.000	4.36860	2.38100	0.46656	1.32667
3308.000	4.35484	2.38104	0.52389	1.40619
3309.000	4.29390	2.42282	0.45272	1.43205
3310.000	4.31946	2.38512	0.50412	1.44596
3311.000	4.30570	2.33565	0.42109	1.45591
3312.000	4.29783	2.41489	0.44877	1.50561
3313.000	4.29587	2.34756	0.43889	1.55929
3314.000	4.29390	2.27626	0.45668	1.56525
3315.000	4.30570	2.19898	0.42307	1.58911
3316.000	4.32535	2.29400	0.46656	1.49964
3317.000	4.33518	2.28802	0.48831	1.55530
3318.000	4.31749	2.33165	0.43493	1.58116
3319.000	4.26638	2.22088	0.42702	1.52351
3320.000	4.30373	2.24454	0.41714	1.55929
3321.000	4.30963	2.28018	0.44086	1.57519
3322.000	4.31749	2.34551	0.38946	1.56725
3323.000	4.28604	2.32580	0.43691	1.58314
3324.000	4.28014	2.33969	0.43889	1.56326
3325.000	4.34305	2.43851	0.46261	1.48573
3326.000	4.28014	2.44861	0.43493	1.52152
3327.000	4.32339	2.49599	0.48040	1.45988
3328.000	4.29390	2.43668	0.42505	1.44597
3329.000	4.31946	2.39106	0.45075	1.40024
3330.000	4.28997	2.32183	0.53378	1.42806
3331.000	4.25655	2.31797	0.48831	1.46385
3332.000	4.21722	2.26857	0.46854	1.44398
3333.000	4.28211	2.29016	0.51401	1.46584
3334.000	4.25458	2.35165	0.47447	1.54139
3335.000	4.22509	2.29033	0.45865	1.52748
3336.000	4.27031	2.33576	0.51203	1.55927
3337.000	4.26245	2.20108	0.45865	1.51356
3338.000	4.22902	2.28042	0.47645	1.54338
3339.000	4.21919	2.28045	0.49226	1.52151
3340.000	4.22312	2.24874	0.43296	1.49567
3341.000	4.20542	2.25275	0.45470	1.54537
3342.000	4.23885	2.24671	0.48238	1.54735
3343.000	4.21132	2.22698	0.44877	1.59109
3344.000	4.19953	2.22107	0.44877	1.51555
3345.000	4.25065	2.24074	0.49622	1.51952
3346.000	4.23099	2.32003	0.47842	1.58711
3347.000	4.20542	2.26068	0.44482	1.54338
3348.000	4.25851	2.24864	0.46063	1.49169
3349.000	4.21919	2.23885	0.47052	1.60500
3350.000	4.22509	2.27647	0.46459	1.56326
3351.000	4.20149	2.31219	0.46261	1.53543
3352.000	4.24475	2.36554	0.42307	1.49766
3353.000	4.22312	2.29826	0.47249	1.54735
3354.000	4.25065	2.39721	0.40330	1.50164
3355.000	4.19953	2.39935	0.37167	1.50563
3356.000	4.20542	2.30030	0.41319	1.45592
3357.000	4.17986	2.33603	0.40726	1.45393
3358.000	4.24868	2.41108	0.40923	1.46586
3359.000	4.16216	2.36183	0.34993	1.45990
3360.000	4.18183	2.33008	0.33806	1.44400
3361.000	4.18379	2.34196	0.36772	1.47183
3362.000	4.17396	2.34397	0.42900	1.49965
3363.000	4.24475	2.35168	0.39342	1.46984
3364.000	4.22902	2.34380	0.37958	1.52550
3365.000	4.20149	2.37558	0.38551	1.55135
3366.000	4.18183	2.41723	0.42900	1.57718
3367.000	4.21526	2.33592	0.40726	1.52550
3368.000	4.17003	2.37765	0.42900	1.53742
3369.000	4.19756	2.27655	0.43493	1.56525
3370.000	4.17986	2.32018	0.40528	1.48375
3371.000	4.15036	2.35394	0.43493	1.48375
3372.000	4.22509	2.34382	0.41121	1.55532
3373.000	4.19756	2.28645	0.44284	1.53146
3374.000	4.19559	2.29834	0.48040	1.56922
3375.000	4.18379	2.41326	0.44284	1.58513
3376.000	4.11889	2.27876	0.48831	1.58313
3377.000	4.15036	2.30838	0.45272	1.55730
3378.000	4.11299	2.38773	0.46459	1.54139
3379.000	4.11103	2.40160	0.51203	1.47180
3380.000	4.18379	2.34394	0.42307	1.43802
3381.000	4.15430	2.35195	0.51005	1.40222
3382.000	4.12283	2.36591	0.47052	1.41813
3383.000	4.16413	2.30834	0.43098	1.43404
3384.000	4.17199	2.31624	0.47447	1.40024
3385.000	4.11299	2.27085	0.41714	1.42609
3386.000	4.09333	2.28477	0.51598	1.43800
3387.000	4.12086	2.22130	0.42307	1.41218
3388.000	4.11693	2.24310	0.44679	1.39627
3389.000	4.19756	2.20919	0.42702	1.46188
3390.000	4.08742	2.15798	0.42702	1.49568
3391.000	4.09726	2.15003	0.42900	1.53146
3392.000	4.14446	2.14990	0.43691	1.52152
3393.000	4.14053	2.16973	0.43296	1.44398
3394.000	4.10513	2.21341	0.47447	1.45392
3395.000	4.10906	2.14207	0.43889	1.53344
3396.000	4.12676	2.17571	0.41912	1.51556
3397.000	4.10709	2.18963	0.43098	1.47182
3398.000	4.12283	2.22129	0.43691	1.49567
3399.000	4.09529	2.23920	0.42900	1.47977
3400.000	4.15823	2.27666	0.42505	1.47778
3401.000	4.06972	2.36012	0.42702	1.50959
3402.000	4.16413	2.22910	0.37958	1.50165
3403.000	4.07562	2.26105	0.40133	1.46785
3404.000	4.14446	2.22519	0.38946	1.54141
3405.000	4.07759	2.22340	0.37958	1.46984
3406.000	4.04218	2.27699	0.43493	1.48176
3407.000	4.08742	2.23922	0.42505	1.50164
3408.000	4.10119	2.28277	0.41516	1.53743
3409.000	4.05595	2.22742	0.38946	1.57918
3410.000	4.09529	2.22731	0.41516	1.57321
3411.000	4.13463	2.22126	0.43098	1.60501
3412.000	4.13660	2.21134	0.44482	1.54935
3413.000	4.08742	2.22931	0.41912	1.54339
3414.000	4.12283	2.16977	0.42109	1.55929
3415.000	4.11496	2.18763	0.40528	1.56526
3416.000	4.04218	2.17594	0.42702	1.48176
3417.000	4.10316	2.20747	0.42900	1.52351
3418.000	4.12283	2.18166	0.42307	1.55929
3419.000	4.04808	2.13232	0.34993	1.54936
3420.000	4.10513	2.15595	0.41319	1.50562
3421.000	4.11103	2.20151	0.41912	1.52351
3422.000	4.01661	2.12448	0.38156	1.49568
3423.000	4.10906	2.17179	0.43098	1.52947
3424.000	4.12086	2.15987	0.43691	1.52351
3425.000	4.10513	2.23125	0.44482	1.52748
3426.000	4.08349	2.13421	0.41319	1.47580
3427.000	4.09529	2.14805	0.42702	1.51158
3428.000	4.10709	2.15000	0.44679	1.48175
3429.000	4.10709	2.19954	0.40726	1.44995
3430.000	4.10119	2.13218	0.39342	1.49966
3431.000	4.07759	2.16593	0.40923	1.52749
3432.000	4.01464	2.15223	0.43493	1.51953
3433.000	4.09726	2.15994	0.41714	1.39428
3434.000	4.08152	2.20159	0.40528	1.47779
3435.000	4.15823	2.24298	0.44284	1.47778
3436.000	4.15233	2.18554	0.38353	1.51159
3437.000	4.15626	2.22714	0.39539	1.42809
3438.000	4.09726	2.22730	0.40726	1.48574
3439.000	4.11693	2.21536	0.44284	1.51356
3440.000	4.09529	2.30656	0.47842	1.44199
3441.000	4.16413	2.23702	0.42109	1.53742
3442.000	4.10906	2.21142	0.44284	1.43603
3443.000	4.12676	2.27081	0.45272	1.50760
3444.000	4.09726	2.28080	0.46656	1.47777
3445.000	4.12873	2.29260	0.41912	1.49170
3446.000	4.10709	2.21935	0.44679	1.48374
3447.000	4.08939	2.18374	0.43098	1.48971
3448.000	4.15430	2.21328	0.41714	1.47580
3449.000	4.08349	2.16394	0.43889	1.49170
3450.000	4.11103	2.24708	0.46459	1.44199
3451.000	4.11103	2.18566	0.42109	1.41814
3452.000	4.07759	2.23727	0.41516	1.42013
3453.000	4.10513	2.17577	0.43098	1.37837
3454.000	4.13266	2.16578	0.41714	1.42212
3455.000	4.10119	2.19757	0.42109	1.41416
3456.000	4.15233	2.21328	0.44877	1.36247
3457.000	4.11693	2.14007	0.47052	1.38632
3458.000	4.17789	2.20330	0.47249	1.41018
3459.000	4.13463	2.21531	0.45075	1.32071
3460.000	4.16216	2.24693	0.47249	1.35053
3461.000	4.12480	2.23119	0.45470	1.39030
3462.000	4.08939	2.21742	0.43889	1.34656
3463.000	4.10316	2.22927	0.40923	1.36645
3464.000	4.11889	2.19951	0.45075	1.40422
3465.000	4.12873	2.18957	0.49424	1.33263
3466.000	4.09136	2.18571	0.42109	1.34060
3467.000	4.10709	2.20350	0.46063	1.36445
3468.000	4.10906	2.12225	0.41912	1.27101
3469.000	4.14840	2.23707	0.47447	1.36644
3470.000	4.07562	2.24322	0.46459	1.38036
3471.000	4.13266	2.20343	0.47052	1.33264
3472.000	4.14643	2.20339	0.44482	1.38831
3473.000	4.10316	2.20747	0.49622	1.36047
3474.000	4.12480	2.25100	0.51005	1.42210
3475.000	4.12086	2.18167	0.46854	1.42410
3476.000	4.11496	2.17574	0.45865	1.41416
3477.000	4.12480	2.12816	0.53575	1.39824
3478.000	4.12283	2.17572	0.47645	1.41614
3479.000	4.10119	2.19559	0.45865	1.39825
3480.000	4.11299	2.20745	0.45075	1.41018
3481.000	4.08152	2.24122	0.49622	1.51554
3482.000	4.07169	2.25908	0.50610	1.45590
3483.000	4.08939	2.27290	0.50215	1.45590
3484.000	4.08546	2.24913	0.48435	1.45391
3485.000	4.07956	2.23132	0.52191	1.43005
3486.000	4.10709	2.29266	0.47645	1.48374
3487.000	4.02448	2.17797	0.49226	1.45988
3488.000	4.03038	2.23938	0.48435	1.38632
3489.000	4.09726	2.28278	0.50808	1.43403
3490.000	4.07366	2.25907	0.51598	1.44794
3491.000	4.02841	2.22155	0.49226	1.50361
3492.000	4.06185	2.21551	0.49028	1.46385
3493.000	4.02054	2.24139	0.49226	1.35848
3494.000	4.05792	2.21751	0.56540	1.48968
3495.000	4.04612	2.24330	0.51796	1.40420
3496.000	4.01267	2.25924	0.50412	1.40023
3497.000	4.02448	2.23147	0.50610	1.38035
3498.000	4.06579	2.25909	0.50808	1.44993
3499.000	4.02448	2.27506	0.54761	1.37437
3500.000	4.01858	2.22950	0.54564	1.38829
3501.000	4.01661	2.25527	0.52389	1.39426
3502.000	4.05595	2.22544	0.54168	1.46185
3503.000	4.07759	2.26501	0.53773	1.44993
3504.000	3.99103	2.29101	0.54761	1.45788
3505.000	4.03628	2.21360	0.54366	1.48770
3506.000	4.06382	2.24325	0.56936	1.50359
3507.000	4.05202	2.28291	0.59506	1.46184
3508.000	4.02251	2.16608	0.54564	1.44197
3509.000	3.97333	2.17612	0.55947	1.42805
3510.000	3.97529	2.18602	0.60099	1.44196
3511.000	3.94578	2.11079	0.57133	1.38232
3512.000	3.98513	2.16222	0.58122	1.48570
3513.000	3.95365	2.17419	0.57727	1.41214
3514.000	3.99300	2.15625	0.56540	1.38431
3515.000	3.98710	2.17212	0.52784	1.41215
3516.000	4.03825	2.13235	0.55750	1.44197
3517.000	3.95168	2.10681	0.62866	1.42008
3518.000	3.98513	2.08690	0.49819	1.38234
3519.000	3.97136	2.12460	0.58913	1.38431
3520.000	3.97333	2.20188	0.60296	1.36243
3521.000	3.94578	2.18214	0.60494	1.40219
3522.000	3.97529	2.11468	0.61680	1.40219
3523.000	3.98710	2.30092	0.60494	1.35448
3524.000	3.96152	2.13651	0.50215	1.41017
3525.000	3.98710	2.17410	0.51994	1.40023
3526.000	3.96742	2.13253	0.54564	1.38034
3527.000	3.99693	2.18398	0.51796	1.40222
3528.000	3.99300	2.23750	0.59110	1.39623
3529.000	3.99103	2.19589	0.54366	1.39426
3530.000	4.00874	2.18792	0.54959	1.45390
3531.000	4.03038	2.21560	0.55157	1.47577
3532.000	3.96545	2.21181	0.62075	1.42207
3533.000	3.99300	2.21966	0.58517	1.51154
3534.000	3.99890	2.17407	0.57727	1.40618
3535.000	4.00874	2.24340	0.56540	1.40817
3536.000	4.05989	2.28685	0.58320	1.43799
3537.000	4.03825	2.22350	0.55354	1.39028
3538.000	4.09726	2.30259	0.50017	1.45789
3539.000	3.99103	2.21174	0.50808	1.45789
3540.000	4.03628	2.26512	0.49622	1.45391
3541.000	4.05792	2.25912	0.49424	1.42807
3542.000	4.08152	2.24716	0.56145	1.49366
3543.000	4.08939	2.20355	0.55157	1.42805
3544.000	4.11103	2.31840	0.54959	1.52547
3545.000	4.07366	2.32643	0.54564	1.53541
3546.000	4.01858	2.29687	0.55354	1.50757
3547.000	4.03038	2.30476	0.52784	1.51752
3548.000	4.07759	2.34623	0.52982	1.47577
3549.000	4.07562	2.37596	0.57727	1.50558
3550.000	4.05005	2.36414	0.53971	1.44197
3551.000	4.05989	2.35619	0.54959	1.46583
3552.000	4.06972	2.38390	0.58715	1.47576
3553.000	4.07366	2.43935	0.52982	1.48770
3554.000	4.05399	2.38592	0.57529	1.48570
3555.000	4.07759	2.49480	0.55552	1.48769
3556.000	4.10709	2.45707	0.59901	1.52148
3557.000	4.06185	2.39382	0.57924	1.49166
3558.000	4.05989	2.42751	0.54366	1.44794
3559.000	4.06382	2.40174	0.56936	1.38232
3560.000	4.06972	2.45521	0.57924	1.51552
3561.000	4.10709	2.38577	0.54366	1.43402
3562.000	4.10119	2.52443	0.56343	1.45191
3563.000	4.06972	2.45521	0.54564	1.49366
3564.000	4.08742	2.43931	0.61482	1.55726
3565.000	4.06972	2.46313	0.59506	1.59901
3566.000	4.06579	2.37598	0.60296	1.55328
3567.000	4.06579	2.43937	0.67215	1.55326
3568.000	4.03825	2.42163	0.60889	1.48967
3569.000	4.08152	2.44923	0.63064	1.50159
3570.000	4.02841	2.36817	0.64843	1.51948
3571.000	4.06185	2.49287	0.67017	1.55326
3572.000	4.04415	2.52461	0.65041	1.51749
3573.000	4.09333	2.52446	0.70378	1.44988
3574.000	4.06972	2.48096	0.68006	1.51947
3575.000	4.07759	2.57996	0.67610	1.40218
3576.000	4.10316	2.46105	0.71366	1.45982
3577.000	4.06185	2.50079	0.62471	1.42008
3578.000	4.08742	2.53636	0.62075	1.43798
3579.000	4.12873	2.56989	0.65831	1.44989
3580.000	4.07366	2.53046	0.59506	1.53539
3581.000	4.07956	2.58590	0.64052	1.44791
3582.000	4.11889	2.64121	0.62273	1.52942
3583.000	4.17199	2.56777	0.60889	1.56521
3584.000	4.06972	2.62751	0.63657	1.54135
3585.000	4.12480	2.66297	0.58913	1.50757
3586.000	4.14446	2.67083	0.57924	1.52347
3587.000	4.19953	2.67658	0.60692	1.56322
3588.000	4.15036	2.60943	0.57727	1.54335
3589.000	4.21132	2.70426	0.58122	1.54534
3590.000	4.23099	2.67845	0.58320	1.55528
3591.000	4.18183	2.71030	0.52389	1.57915
3592.000	4.22705	2.75567	0.42109	1.67061
3593.000	4.28800	2.82472	0.35586	1.53147
3594.000	4.34894	2.86605	0.29457	1.07018
3595.000	4.75757	1.65896	0.34993	1.68056
3596.000	4.98132	2.25822	0.22538	2.99731
3597.000	4.85180	3.93463	-0.01384	4.66287
3598.000	4.85376	5.56657	-0.35981	6.24179
3599.000	4.76346	7.22557	-0.78087	8.16974
3600.000	NaN	NaN	-1.65232	10.07842
3601.000	NaN	NaN	-6.79261	10.86721
3602.000	NaN	NaN	NaN	NaN
3603.000	NaN	NaN	NaN	NaN
3604.000	NaN	NaN	NaN	NaN
3605.000	NaN	NaN	NaN	NaN
3606.000	NaN	NaN	NaN	NaN
3607.000	NaN	NaN	NaN	NaN
3608.000	NaN	NaN	NaN	NaN
3609.000	NaN	NaN	NaN	NaN
3610.000	NaN	NaN	NaN	NaN
3611.000	NaN	NaN	NaN	NaN
3612.000	NaN	NaN	NaN	NaN
3613.000	NaN	NaN	NaN	NaN
3614.000	NaN	NaN	NaN	NaN
3615.000	NaN	NaN	NaN	NaN
3616.000	NaN	NaN	NaN	NaN
3617.000	NaN	NaN	NaN	NaN
3618.000	NaN	NaN	NaN	NaN
3619.000	NaN	NaN	NaN	NaN
3620.000	NaN	NaN	NaN	NaN
3621.000	NaN	NaN	NaN	NaN
3622.000	NaN	NaN	NaN	NaN
3623.000	NaN	NaN	NaN	NaN
3624.000	NaN	NaN	NaN	NaN
3625.000	NaN	NaN	NaN	NaN
3626.000	NaN	NaN	NaN	NaN
3627.000	NaN	NaN	NaN	NaN
3628.000	NaN	NaN	NaN	NaN
3629.000	NaN	NaN	NaN	NaN
3630.000	NaN	NaN	NaN	NaN
3631.000	NaN	NaN	NaN	NaN
3632.000	NaN	NaN	NaN	NaN
3633.000	NaN	NaN	NaN	NaN
3634.000	NaN	NaN	NaN	NaN
3635.000	NaN	NaN	NaN	NaN
3636.000	NaN	NaN	NaN	NaN
3637.000	NaN	NaN	NaN	NaN
3638.000	NaN	NaN	NaN	NaN
3639.000	NaN	NaN	NaN	NaN
3640.000	NaN	NaN	NaN	NaN
3641.000	NaN	NaN	NaN	NaN
3642.000	NaN	NaN	NaN	NaN
3643.000	NaN	NaN	NaN	NaN
3644.000	NaN	NaN	NaN	NaN
3645.000	NaN	NaN	NaN	NaN
3646.000	NaN	NaN	NaN	NaN
3647.000	NaN	NaN	NaN	NaN
3648.000	NaN	NaN	NaN	NaN
3649.000	NaN	NaN	NaN	NaN
3650.000	NaN	NaN	NaN	NaN
3651.000	NaN	NaN	NaN	NaN
3652.000	NaN	NaN	NaN	NaN
3653.000	NaN	NaN	NaN	NaN
3654.000	NaN	NaN	NaN	NaN
3655.000	NaN	NaN	NaN	NaN
3656.000	NaN	NaN	NaN	NaN
3657.000	NaN	NaN	NaN	NaN
3658.000	NaN	NaN	NaN	NaN
3659.000	NaN	NaN	NaN	NaN
3660.000	NaN	NaN	NaN	NaN
3661.000	NaN	NaN	NaN	NaN
3662.000	NaN	NaN	NaN	NaN
3663.000	NaN	NaN	NaN	NaN
3664.000	NaN	NaN	NaN	NaN
3665.000	NaN	NaN	NaN	NaN
3666.000	NaN	NaN	NaN	NaN
3667.000	NaN	NaN	NaN	NaN
3668.000	NaN	NaN	NaN	NaN
3669.000	NaN	NaN	NaN	NaN
3670.000	NaN	NaN	NaN	NaN
3671.000	NaN	NaN	NaN	NaN
3672.000	NaN	NaN	NaN	NaN
3673.000	NaN	NaN	NaN	NaN
3674.000	NaN	NaN	NaN	NaN
3675.000	NaN	NaN	NaN	NaN
3676.000	NaN	NaN	NaN	NaN
3677.000	NaN	NaN	NaN	NaN
3678.000	NaN	NaN	NaN	NaN
3679.000	NaN	NaN	NaN	NaN
3680.000	NaN	NaN	NaN	NaN
3681.000	NaN	NaN	NaN	NaN
3682.000	NaN	NaN	NaN	NaN
3683.000	NaN	NaN	NaN	NaN
3684.000	NaN	NaN	NaN	NaN
3685.000	NaN	NaN	NaN	NaN
3686.000	NaN	NaN	NaN	NaN
3687.000	NaN	NaN	NaN	NaN
3688.000	NaN	NaN	NaN	NaN
3689.000	NaN	NaN	NaN	NaN
3690.000	NaN	NaN	NaN	NaN
3691.000	NaN	NaN	NaN	NaN
3692.000	NaN	NaN	NaN	NaN
3693.000	NaN	NaN	NaN	NaN
3694.000	NaN	NaN	NaN	NaN
3695.000	NaN	NaN	NaN	NaN
3696.000	NaN	NaN	NaN	NaN
3697.000	NaN	NaN	NaN	NaN
3698.000	NaN	NaN	NaN	NaN
3699.000	NaN	NaN	NaN	NaN
3700.000	NaN	NaN	NaN	NaN
3701.000	NaN	NaN	NaN	NaN
3702.000	NaN	NaN	NaN	NaN
3703.000	NaN	NaN	NaN	NaN
3704.000	NaN	NaN	NaN	NaN
3705.000	NaN	NaN	NaN	NaN
3706.000	NaN	NaN	NaN	NaN
3707.000	NaN	NaN	NaN	NaN
3708.000	NaN	NaN	NaN	NaN
3709.000	NaN	NaN	NaN	NaN
3710.000	NaN	NaN	NaN	NaN
3711.000	NaN	NaN	NaN	NaN
3712.000	NaN	NaN	NaN	NaN
3713.000	NaN	NaN	NaN	NaN
3714.000	NaN	NaN	NaN	NaN
3715.000	NaN	NaN	NaN	NaN
3716.000	NaN	NaN	NaN	NaN
3717.000	NaN	NaN	NaN	NaN
3718.000	NaN	NaN	NaN	NaN
3719.000	NaN	NaN	NaN	NaN
3720.000	NaN	NaN	NaN	NaN
3721.000	NaN	NaN	NaN	NaN
3722.000	NaN	NaN	NaN	NaN
3723.000	NaN	NaN	NaN	NaN
3724.000	NaN	NaN	NaN	NaN
3725.000	NaN	NaN	-2.25262	11.37595
3726.000	14.15102	12.64404	-0.28271	11.14711
3727.000	10.35977	12.03355	1.65627	10.62492
3728.000	6.78286	10.88267	1.69380	10.14952
3729.000	6.71657	10.34969	1.68195	9.61884
3730.000	6.54102	9.84947	1.67997	9.17367
3731.000	6.54687	9.30743	1.65824	8.69055
3732.000	6.42195	8.77562	1.61083	8.21795
3733.000	6.30674	8.30765	1.65429	7.83366
3734.000	6.34580	7.82439	1.62861	7.40982
3735.000	6.23056	7.39671	1.70170	7.00440
3736.000	6.19735	6.93768	1.67800	6.58292
3737.000	6.11331	6.65595	1.71158	6.23326
3738.000	6.05076	6.24651	1.72935	5.82021
3739.000	5.98819	5.97924	1.69775	5.53676
3740.000	5.97841	5.67974	1.83601	5.15197
3741.000	5.91583	5.39416	1.80638	4.83829
3742.000	5.84540	5.15936	1.80836	4.39379
3743.000	5.78670	4.95957	1.86563	4.17021
3744.000	5.79061	4.88488	1.95450	3.92270
3745.000	5.73973	4.73987	1.80441	3.63200
3746.000	5.73973	4.64352	1.97819	3.36224
3747.000	5.69863	4.44911	1.93475	3.11459
3748.000	5.71037	4.25417	1.95845	2.96386
3749.000	5.68884	4.13028	2.00979	2.77338
3750.000	5.65164	4.06160	1.94462	2.61874
3751.000	5.67318	4.09100	2.01571	2.58688
3752.000	5.67514	4.04371	1.99202	2.60875
3753.000	5.72995	3.98620	2.02756	2.54123
3754.000	5.76126	4.14748	1.98412	2.45200
3755.000	5.72603	4.26586	2.04335	2.38641
3756.000	5.68101	4.28982	2.08482	2.32681
3757.000	5.73777	4.48815	2.15392	2.62038
3758.000	5.73777	4.51373	2.16576	2.77707
3759.000	5.68492	4.53578	2.13812	2.82075
3760.000	5.72995	4.51969	2.19538	3.03479
3761.000	5.71233	4.53163	2.21906	3.13979
3762.000	5.70254	4.55138	2.19932	3.17749
3763.000	5.68884	4.57509	2.19143	3.29839
3764.000	5.72016	4.61025	2.15984	3.29251
3765.000	5.73386	4.57080	2.18156	3.31822
3766.000	5.69471	4.58685	2.20525	3.35582
3767.000	5.73582	4.60816	2.16576	3.32817
3768.000	5.73190	4.56492	2.16181	3.33412
3769.000	5.72603	4.56103	2.17169	3.31230
3770.000	5.71624	4.58865	2.14207	3.36982
3771.000	5.72212	4.58663	2.16181	3.33214
3772.000	5.63990	4.58335	2.08482	3.38580
3773.000	5.63011	4.52441	2.16774	3.34599
3774.000	5.69471	4.54554	2.09666	3.34615
3775.000	5.69471	4.55341	2.09864	3.36199
3776.000	5.63794	4.50860	2.11443	3.36196
3777.000	5.61836	4.55007	2.05718	3.29471
3778.000	5.63011	4.55982	2.08087	3.31052
3779.000	5.65752	4.50255	2.06507	3.33631
3780.000	5.62032	4.50874	2.03546	3.37996
3781.000	5.61053	4.53046	2.07692	3.35808
3782.000	5.59486	4.54829	2.03743	3.37203
3783.000	5.64773	4.53607	1.99991	3.35229
3784.000	5.61640	4.54222	2.04335	3.36211
3785.000	5.60269	4.54233	1.99399	3.28691
3786.000	5.63990	4.55974	2.06507	3.36801
3787.000	5.60857	4.58359	2.04138	3.34825
3788.000	5.65360	4.53406	2.04335	3.38787
3789.000	5.66339	4.61464	2.08877	3.44918
3790.000	5.61836	4.58352	2.09469	3.37389
3791.000	5.64968	4.63245	2.07495	3.40761
3792.000	5.59094	4.60931	2.07889	3.41157
3793.000	5.63402	4.69747	2.08482	3.38382
3794.000	5.65164	4.63046	2.10259	3.40953
3795.000	5.63402	4.65421	2.09271	3.43333
3796.000	5.67514	4.68928	2.13220	3.37777
3797.000	5.67122	4.69324	2.12628	3.38769
3798.000	5.68884	4.63213	2.11443	3.38177
3799.000	5.66535	4.67756	2.10456	3.39170
3800.000	5.66339	4.73263	2.18550	3.49056
3801.000	5.66339	4.63037	2.07889	3.44326
3802.000	5.65164	4.60686	2.12430	3.42930
3803.000	5.61444	4.60716	2.13615	3.46294
3804.000	5.72603	4.61807	2.13023	3.47088
3805.000	5.64968	4.60491	2.14010	3.51839
3806.000	5.69667	4.62027	2.14010	3.47878
3807.000	5.65556	4.61470	2.13812	3.42332
3808.000	5.71624	4.66338	2.11641	3.43724
3809.000	5.60465	4.62100	2.11838	3.52637
3810.000	5.63794	4.58927	2.15194	3.52233
3811.000	5.61444	4.58748	2.15984	3.50647
3812.000	5.66143	4.61859	2.14602	3.55205
3813.000	5.63206	4.64045	2.13023	3.49861
3814.000	5.62032	4.62088	2.13418	3.56396
3815.000	5.63206	4.66209	2.13812	3.53028
3816.000	5.63990	4.57351	2.12036	3.53230
3817.000	5.58311	4.61134	2.14602	3.54611
3818.000	5.60269	4.59938	2.14010	3.50651
3819.000	5.61836	4.57565	2.10061	3.51650
3820.000	5.62619	4.56182	2.10654	3.40358
3821.000	5.62032	4.60317	2.10456	3.44519
3822.000	5.61836	4.62679	2.06705	3.43734
3823.000	5.65556	4.61667	2.08284	3.43929
3824.000	5.64577	4.63248	2.04335	3.42155
3825.000	5.62032	4.64055	2.06310	3.31452
3826.000	5.61836	4.61893	2.07692	3.43336
3827.000	5.61640	4.58747	2.00189	3.43946
3828.000	5.66535	4.58315	2.05520	3.40369
3829.000	5.63206	4.62472	2.02558	3.39583
3830.000	5.65752	4.58124	2.04138	3.36211
3831.000	5.63206	4.58341	2.03546	3.38590
3832.000	5.62032	4.57760	2.07495	3.37789
3833.000	5.60073	4.53054	2.04138	3.36608
3834.000	5.56353	4.59968	2.08482	3.38580
3835.000	5.61444	4.60519	2.06112	3.41755
3836.000	5.63011	4.57949	2.07297	3.38780
3837.000	5.60661	4.60525	2.05520	3.36010
3838.000	5.59486	4.62108	2.01966	3.37009
3839.000	5.61640	4.60124	2.04138	3.40174
3840.000	5.60661	4.62492	2.06310	3.46311
3841.000	5.66339	4.59693	2.02953	3.42752
3842.000	5.63206	4.55587	2.05323	3.46709
3843.000	5.63206	4.57751	2.03743	3.36609
3844.000	5.63402	4.56176	2.05323	3.41756
3845.000	5.57332	4.55239	2.04928	3.38191
3846.000	5.59094	4.56209	2.09271	3.44719
3847.000	5.62423	4.54413	2.06112	3.40368
3848.000	5.56940	4.56029	2.03546	3.37401
3849.000	5.64773	4.53411	2.02163	3.41367
3850.000	5.63990	4.52826	2.05520	3.34227
3851.000	5.62619	4.48312	2.04335	3.34824
3852.000	5.56353	4.50327	2.02558	3.31657
3853.000	5.54982	4.50928	2.04730	3.35220
3854.000	5.64577	4.50854	2.01571	3.35226
3855.000	5.55961	4.55053	2.07889	3.34024
3856.000	5.55961	4.49543	2.03151	3.35619
3857.000	5.58899	4.51095	2.10259	3.32434
3858.000	5.57919	4.60153	2.02361	3.34630
3859.000	5.51064	4.54500	2.05915	3.29074
3860.000	5.58507	4.54443	2.03151	3.34232
3861.000	5.62423	4.57364	2.02558	3.29676
3862.000	5.56549	4.49735	2.04533	3.24123
3863.000	5.60465	4.56985	2.04928	3.25708
3864.000	5.58703	4.54638	2.12036	3.30845
3865.000	5.58507	4.58181	2.09074	3.28672
3866.000	5.57724	4.51497	2.01571	3.27102
3867.000	5.57919	4.54644	2.06705	3.29469
3868.000	5.54590	4.52702	2.02953	3.31260
3869.000	5.57528	4.56615	2.09271	3.30851
3870.000	5.58115	4.52282	2.11641	3.26486
3871.000	5.53023	4.59207	2.07297	3.26496
3872.000	5.60269	4.58561	2.11838	3.21135
3873.000	5.57528	4.54647	2.12430	3.31240
3874.000	5.61836	4.54417	2.07297	3.30855
3875.000	5.55178	4.57617	2.13615	3.22519
3876.000	5.54786	4.61555	2.14997	3.25687
3877.000	5.54394	4.57820	2.09074	3.35607
3878.000	5.53219	4.60977	2.11443	3.34413
3879.000	5.55373	4.61156	2.10851	3.35999
3880.000	5.61640	4.57173	2.11443	3.35403
3881.000	5.55961	4.58988	2.17366	3.33806
3882.000	5.62423	4.65625	2.12825	3.35797
3883.000	5.58507	4.54836	2.11641	3.38969
3884.000	5.57332	4.60354	2.13812	3.44115
3885.000	5.52827	4.57438	2.14800	3.35792
3886.000	5.63598	4.64239	2.15984	3.40544
3887.000	5.62619	4.65034	2.11443	3.40753
3888.000	5.64185	4.63841	2.15787	3.44705
3889.000	5.61444	4.64059	2.13812	3.43521
3890.000	5.59094	4.57980	2.14405	3.40746
3891.000	5.58703	4.62704	2.16379	3.44307
3892.000	5.63206	4.62669	2.15589	3.42526
3893.000	5.61836	4.61893	2.15589	3.44111
3894.000	5.62032	4.57957	2.14997	3.46093
3895.000	5.62815	4.58541	2.12430	3.38373
3896.000	5.58507	4.60148	2.15984	3.44110
3897.000	5.58311	4.57396	2.12825	3.47088
3898.000	5.65164	4.63833	2.18945	3.40934
3899.000	5.60661	4.52655	2.17958	3.46285
3900.000	5.59878	4.54236	2.13220	3.41343
3901.000	5.61053	4.56784	2.13812	3.46690
3902.000	5.63402	4.61290	2.17563	3.39947
3903.000	5.63206	4.58341	2.12628	3.37382
3904.000	5.64381	4.54004	2.12233	3.43128
3905.000	5.65752	4.65599	2.09469	3.48483
3906.000	5.55765	4.59580	2.13615	3.40550
3907.000	5.65752	4.60878	2.14602	3.43321
3908.000	5.65752	4.59501	2.12628	3.39958
3909.000	5.61053	4.64653	2.14010	3.45303
3910.000	5.62032	4.59334	2.12036	3.46100
3911.000	5.63206	4.62669	2.10259	3.42340
3912.000	5.62032	4.54809	2.11048	3.41150
3913.000	5.63794	4.62664	2.15194	3.41735
3914.000	5.61640	4.58550	2.17761	3.41333
3915.000	5.63598	4.59912	2.14010	3.44709
3916.000	5.62423	4.55986	2.13615	3.39163
3917.000	5.69667	4.59470	2.13023	3.41343
3918.000	5.63206	4.63062	2.11443	3.40951
3919.000	5.61640	4.59927	2.14405	3.43519
3920.000	5.60857	4.65244	2.13220	3.40749
3921.000	5.59486	4.62108	2.16181	3.45496
3922.000	5.59878	4.62105	2.16576	3.38760
3923.000	5.59682	4.62303	2.10061	3.45114
3924.000	5.63011	4.57556	2.12628	3.38175
3925.000	5.59486	4.57977	2.15194	3.34999
3926.000	5.63011	4.57752	2.11246	3.36593
3927.000	5.63598	4.56174	2.15984	3.34799
3928.000	5.59682	4.50302	2.10654	3.38971
3929.000	5.61640	4.54025	2.12036	3.40355
3930.000	5.59682	4.52269	2.16576	3.41534
3931.000	5.59878	4.56006	2.17366	3.42126
3932.000	5.56940	4.57997	2.16576	3.36383
3933.000	5.63011	4.61293	2.16576	3.32222
3934.000	5.62227	4.60709	2.19735	3.37564
3935.000	5.62815	4.60705	2.13023	3.40155
3936.000	5.59094	4.60144	2.15194	3.35197
3937.000	5.58703	4.54638	2.12825	3.35599
3938.000	5.62423	4.58741	2.14405	3.39161
3939.000	5.56549	4.58787	2.15984	3.38960
3940.000	5.62619	4.56969	2.19340	3.41924
3941.000	5.59486	4.60141	2.17563	3.38362
3942.000	5.61444	4.55404	2.11443	3.39564
3943.000	5.61053	4.61112	2.13812	3.35200
3944.000	5.53807	4.62546	2.09271	3.41154
3945.000	5.62423	4.60905	2.09074	3.35012
3946.000	5.56940	4.54652	2.11048	3.41744
3947.000	5.57724	4.55826	2.13023	3.31834
3948.000	5.60269	4.60135	2.10061	3.36991
3949.000	5.55961	4.56824	2.08877	3.32437
3950.000	5.57528	4.60156	2.13418	3.33220
3951.000	5.60269	4.55413	2.13023	3.35004
3952.000	5.59682	4.54827	2.12430	3.35599
3953.000	5.57528	4.53270	2.08284	3.31051
3954.000	5.53807	4.56053	2.10654	3.31046
3955.000	5.52827	4.53699	2.15589	3.19740
3956.000	5.56549	4.55835	2.08679	3.23718
3957.000	5.55765	4.51119	2.08087	3.25899
3958.000	5.54982	4.51125	2.13023	3.21529
3959.000	5.49889	4.53919	2.12628	3.22521
3960.000	5.53023	4.47401	2.10654	3.22129
3961.000	5.54786	4.52504	2.09074	3.13213
3962.000	5.50085	4.47226	2.10061	3.16581
3963.000	5.58703	4.50113	2.12825	3.16773
3964.000	5.49302	4.52349	2.10061	3.23517
3965.000	5.49497	4.43293	2.12825	3.17764
3966.000	5.52436	4.42878	2.07889	3.16783
3967.000	5.56940	4.49732	2.09271	3.17970
3968.000	5.51064	4.43872	2.11641	3.16974
3969.000	5.55178	4.41480	2.07100	3.17974
3970.000	5.55373	4.44824	2.14207	3.19545
3971.000	5.56157	4.47377	2.14602	3.20931
3972.000	5.57332	4.49926	2.13812	3.19348
3973.000	5.53023	4.45629	2.09271	3.12816
3974.000	5.55569	4.45610	2.12430	3.10431
3975.000	5.49693	4.45851	2.10851	3.18759
3976.000	5.54590	4.39712	2.10061	3.13806
3977.000	5.53807	4.50347	2.11048	3.17570
3978.000	5.56744	4.41271	2.07889	3.21143
3979.000	5.51064	4.40526	2.13418	3.17168
3980.000	5.54590	4.44830	2.14010	3.13203
3981.000	5.51064	4.43085	2.13023	3.10628
3982.000	5.51260	4.40131	2.15984	3.17361
3983.000	5.52044	4.42290	2.14800	3.16571
3984.000	5.57724	4.43232	2.14207	3.15383
3985.000	5.51064	4.41116	2.13615	3.16573
3986.000	5.56549	4.45406	2.13023	3.21133
3987.000	5.52631	4.50749	2.10259	3.13607
3988.000	5.52044	4.48392	2.16181	3.11216
3989.000	5.56157	4.46393	2.08482	3.13809
3990.000	5.52631	4.45829	2.11246	3.17371
3991.000	5.58899	4.41845	2.08087	3.16386
3992.000	5.58311	4.44015	2.12825	3.16377
3993.000	5.54003	4.46015	2.15194	3.14786
3994.000	5.50085	4.48407	2.14207	3.11022
3995.000	5.55373	4.48760	2.12628	3.14990
3996.000	5.49497	4.42506	2.14207	3.06265
3997.000	5.53219	4.46612	2.10061	3.16382
3998.000	5.56549	4.43241	2.13023	3.14791
3999.000	5.51848	4.43866	2.13418	3.13006
4000.000	5.50477	4.40530	2.12825	3.14791
4001.000	5.54982	4.44434	2.19143	3.14778
4002.000	5.55373	4.45218	2.15984	3.12604
4003.000	5.52044	4.46424	2.15589	3.13993
4004.000	5.56940	4.46584	2.16379	3.13396
4005.000	5.55373	4.45021	2.09864	3.08850
4006.000	5.54590	4.42862	2.15984	3.09631
4007.000	5.58311	4.44999	2.18353	3.13194
4008.000	5.55178	4.45219	2.14207	3.13004
4009.000	5.53023	4.44055	2.16971	3.13990
4010.000	5.60857	4.46357	2.12825	3.11818
4011.000	5.54786	4.41876	2.11443	3.08253
4012.000	5.55569	4.47184	2.15194	3.09633
4013.000	5.59682	4.44595	2.12628	3.09043
4014.000	5.55373	4.42856	2.11838	3.13604
4015.000	5.52631	4.44254	2.17366	3.14584
4016.000	5.52631	4.47010	2.15589	3.08046
4017.000	5.53023	4.42874	2.13615	3.11023
4018.000	5.50673	4.46631	2.14405	3.09634
4019.000	5.49497	4.45065	2.15787	3.13992
4020.000	5.57724	4.48939	2.20525	3.12199
4021.000	5.56549	4.49539	2.17761	3.09627
4022.000	5.55961	4.48756	2.14997	3.10624
4023.000	5.52827	4.48189	2.13812	3.15384
4024.000	5.55569	4.51317	2.13812	3.11618
4025.000	5.53807	4.49363	2.19340	3.11408
4026.000	5.56549	4.51113	2.16576	3.09233
4027.000	5.53611	4.52513	2.15787	2.98926
4028.000	5.54590	4.49947	2.14010	3.07851
4029.000	5.51848	4.47409	2.16971	3.08043
4030.000	5.53219	4.45824	2.17563	3.07646
4031.000	5.48910	4.50384	2.14997	3.08840
4032.000	5.57919	4.48741	2.14800	3.10625
4033.000	5.54982	4.52502	2.17563	3.11015
4034.000	5.51064	4.51351	2.16379	3.15577
4035.000	5.57332	4.55042	2.19538	3.13390
4036.000	5.56940	4.49929	2.14207	3.14986
4037.000	5.53219	4.49957	2.17563	3.15178
4038.000	5.54786	4.52701	2.15984	3.17163
4039.000	5.56549	4.51113	2.17366	3.11016
4040.000	5.55178	4.45416	2.16181	3.17163
4041.000	5.56744	4.43043	2.12036	3.17766
4042.000	5.53219	4.45431	2.17366	3.17556
4043.000	5.51064	4.47218	2.13615	3.16772
4044.000	5.58115	4.51101	2.15984	3.15577
4045.000	5.51064	4.50171	2.14405	3.14788
4046.000	5.52436	4.45634	2.13418	3.19348
4047.000	5.53023	4.45235	2.13220	3.16971
4048.000	5.53023	4.45432	2.16774	3.18945
4049.000	5.54003	4.43850	2.18550	3.12004
4050.000	5.59486	4.46368	2.15392	3.11218
4051.000	5.54590	4.46011	2.15392	3.14389
4052.000	5.56744	4.46979	2.15194	3.11615
4053.000	5.55373	4.48564	2.16971	3.07845
4054.000	5.59290	4.48140	2.15194	3.20137
4055.000	5.51456	4.46428	2.16774	3.18549
4056.000	5.53807	4.46411	2.17366	3.18547
4057.000	5.59094	4.41844	2.17366	3.13791
4058.000	5.53415	4.41099	2.19538	3.13390
4059.000	5.53611	4.39129	2.16971	3.13792
4060.000	5.61640	4.46548	2.14997	3.16967
4061.000	5.55569	4.40689	2.19932	3.08235
4062.000	5.54590	4.43649	2.16971	3.09827
4063.000	5.54198	4.40700	2.17169	3.10620
4064.000	5.56157	4.39898	2.17563	3.12997
4065.000	5.52436	4.37563	2.13812	3.14393
4066.000	5.54982	4.43056	2.15787	3.14587
4067.000	5.54003	4.38929	2.17958	3.09429
4068.000	5.56549	4.45209	2.16379	3.14982
4069.000	5.58507	4.44407	2.17366	3.21124
4070.000	5.59094	4.45583	2.19143	3.15967
4071.000	5.57919	4.46576	2.21709	3.14574
4072.000	5.62815	4.50671	2.18353	3.13392
4073.000	5.54590	4.50931	2.22499	3.12194
4074.000	5.57724	4.49923	2.20919	3.07441
4075.000	5.52044	4.48589	2.16774	3.02097
4076.000	5.44012	4.44909	2.16181	3.06657
4077.000	5.40681	4.48477	2.04730	3.02318
4078.000	5.25982	4.32435	1.88933	3.00364
4079.000	5.12844	4.21293	1.82811	2.91252
4080.000	4.99113	4.04032	1.70170	2.72228
4081.000	4.82039	3.89930	1.55552	2.49028
4082.000	4.63189	3.80758	1.44883	2.39908
4083.000	4.51009	3.65418	1.33621	2.17481
4084.000	4.41380	3.47486	1.29472	2.01991
4085.000	4.27621	3.35688	1.20975	1.92661
4086.000	4.22902	3.15141	1.18998	1.82330
4087.000	4.17789	3.06853	1.08327	1.77966
4088.000	4.18773	3.00122	1.12279	1.72200
4089.000	4.09923	2.91447	1.14256	1.79154
4090.000	4.19166	2.94778	1.10896	1.78560
4091.000	4.18576	2.91811	1.08129	1.83132
4092.000	4.19363	2.92402	1.07536	1.82338
4093.000	4.28014	2.95140	1.10698	1.88893
4094.000	4.30963	3.00074	1.12872	1.86507
4095.000	4.30766	2.96712	1.18208	1.85510
4096.000	4.37646	2.90750	1.15441	1.79551
4097.000	4.33322	2.88788	1.12477	1.83726
4098.000	4.36467	2.79475	1.12675	1.75578
4099.000	4.35877	2.84425	1.13268	1.77963
4100.000	4.37056	2.82441	1.09908	1.60079
4101.000	4.34894	2.73544	1.07141	1.65844
4102.000	4.33911	2.63255	1.09513	1.58091
4103.000	4.34894	2.66022	1.12675	1.47356
4104.000	4.32732	2.57914	1.13070	1.53120
4105.000	4.36074	2.65820	1.20382	1.52123
4106.000	4.37646	2.61658	1.16034	1.48150
4107.000	4.40791	2.65804	1.15244	1.47156
4108.000	4.33911	2.60285	1.15441	1.50933
4109.000	4.37646	2.60866	1.18998	1.61067
4110.000	4.39612	2.67787	1.22160	1.60867
4111.000	4.38039	2.66209	1.22358	1.67822
4112.000	4.36074	2.71758	1.20975	1.70208
4113.000	4.43149	2.75690	1.21963	1.71399
4114.000	4.40594	2.72138	1.21172	1.74977
4115.000	4.35877	2.82842	1.19789	1.79747
4116.000	4.40987	2.84009	1.21172	1.81335
4117.000	4.39218	2.77684	1.14256	1.77565
4118.000	4.40594	2.74117	1.15639	1.78756
4119.000	4.40594	2.75700	1.18801	1.69613
4120.000	4.35681	2.81853	1.18998	1.68023
4121.000	4.39022	2.75706	1.19196	1.71799
4122.000	4.39218	2.75903	1.18998	1.69613
4123.000	4.35287	2.72157	1.15046	1.74583
4124.000	4.34305	2.72754	1.20975	1.64643
4125.000	4.38236	2.73532	1.19394	1.63253
4126.000	4.35287	2.72157	1.17813	1.67229
4127.000	4.36270	2.68195	1.17418	1.60869
4128.000	4.33911	2.71568	1.18998	1.61266
4129.000	4.34501	2.69587	1.19789	1.66035
4130.000	4.36860	2.73141	1.18010	1.63453
4131.000	4.36467	2.65225	1.20184	1.67029
4132.000	4.32339	2.73949	1.22160	1.66630
4133.000	4.36467	2.75517	1.25915	1.64044
4134.000	4.33518	2.71372	1.18603	1.71203
4135.000	4.35091	2.73741	1.20777	1.62855
4136.000	4.40005	2.73129	1.24532	1.64442
4137.000	4.35091	2.68991	1.22160	1.64643
4138.000	4.35877	2.69186	1.25915	1.66826
4139.000	4.38432	2.77291	1.22358	1.65437
4140.000	4.36860	2.77891	1.21172	1.66233
4141.000	4.38432	2.76302	1.20777	1.65438
4142.000	4.38825	2.71748	1.21765	1.60668
4143.000	4.35091	2.74335	1.21963	1.61264
4144.000	4.37646	2.73732	1.20777	1.63848
4145.000	4.35287	2.70376	1.26112	1.61460
4146.000	4.32142	2.72564	1.23741	1.63449
4147.000	4.39612	2.72141	1.23544	1.61859
4148.000	4.32929	2.72165	1.22951	1.69014
4149.000	4.36467	2.73934	1.24532	1.64641
4150.000	4.34894	2.76117	1.24334	1.68218
4151.000	4.36074	2.79675	1.21172	1.68419
4152.000	4.33715	2.78298	1.18208	1.70408
4153.000	4.36663	2.74725	1.21370	1.64842
4154.000	4.33125	2.75727	1.20579	1.62060
4155.000	4.42166	2.79850	1.22555	1.66630
4156.000	4.35091	2.78689	1.24729	1.65038
4157.000	4.40201	2.82429	1.26508	1.61261
4158.000	4.32339	2.80480	1.25717	1.68416
4159.000	4.39218	2.77684	1.29076	1.66029
4160.000	4.41970	2.82819	1.19789	1.63253
4161.000	4.31946	2.77117	1.25124	1.63250
4162.000	4.31356	2.77713	1.19591	1.64644
4163.000	4.38825	2.75509	1.25124	1.58082
4164.000	4.37056	2.77890	1.21963	1.64841
4165.000	4.37056	2.73140	1.20382	1.64644
4166.000	4.37056	2.76702	1.21765	1.60072
4167.000	4.36270	2.82246	1.28681	1.64638
4168.000	4.37450	2.82242	1.24334	1.60468
4169.000	4.33911	2.79683	1.24532	1.60070
4170.000	4.37253	2.78681	1.17813	1.66434
4171.000	4.37253	2.77493	1.24334	1.60865
4172.000	4.38039	2.83427	1.24927	1.63647
4173.000	4.34305	2.79285	1.26508	1.60864
4174.000	4.32535	2.81667	1.29867	1.62452
4175.000	4.35877	2.80467	1.26903	1.57286
4176.000	4.33518	2.78497	1.24729	1.65038
4177.000	4.39218	2.80256	1.21370	1.60271
4178.000	4.43346	2.80637	1.23148	1.60468
4179.000	4.37253	2.81055	1.22753	1.59276
4180.000	4.40594	2.82626	1.19591	1.57887
4181.000	4.37843	2.81053	1.23939	1.58481
4182.000	4.34698	2.82846	1.22753	1.63251
4183.000	4.36074	2.87590	1.28286	1.55696
4184.000	4.37646	2.76304	1.24532	1.57884
4185.000	4.39415	2.85796	1.26903	1.59870
4186.000	4.38629	2.80259	1.25322	1.64442
4187.000	4.36270	2.82642	1.28681	1.57881
4188.000	4.36270	2.78486	1.21567	1.56097
4189.000	4.36467	2.79079	1.26310	1.59672
4190.000	4.35877	2.80665	1.23544	1.61661
4191.000	4.39612	2.83619	1.24729	1.57685
4192.000	4.35681	2.77103	1.24927	1.59672
4193.000	4.32535	2.75532	1.26508	1.59274
4194.000	4.34305	2.80671	1.25520	1.59672
4195.000	4.34698	2.77107	1.22753	1.60866
4196.000	4.41184	2.78072	1.23346	1.55301
4197.000	4.30766	2.77319	1.26112	1.58082
4198.000	4.32732	2.75135	1.25915	1.59672
4199.000	4.30570	2.72768	1.24136	1.61064
4200.000	4.33911	2.73943	1.22555	1.58481
4201.000	4.32929	2.77113	1.25124	1.59871
4202.000	4.30963	2.79100	1.30262	1.62849
4203.000	4.27621	2.75549	1.22555	1.60866
4204.000	4.36663	2.75912	1.21963	1.58482
4205.000	4.34894	2.78294	1.27693	1.59273
4206.000	4.30963	2.77516	1.28088	1.65235
4207.000	4.35484	2.79281	1.22358	1.57488
4208.000	4.34698	2.71763	1.24532	1.62853
4209.000	4.30766	2.73163	1.27496	1.62851
4210.000	4.34305	2.73348	1.23741	1.64443
4211.000	4.30766	2.74944	1.27496	1.56690
4212.000	4.28997	2.76138	1.27496	1.61062
4213.000	4.30963	2.76527	1.27496	1.57882
4214.000	4.31356	2.76921	1.21370	1.58482
4215.000	4.29587	2.78313	1.25717	1.61858
4216.000	4.32142	2.73356	1.24532	1.61064
4217.000	4.30176	2.71977	1.25124	1.58082
4218.000	4.33125	2.75727	1.29076	1.57682
4219.000	4.30373	2.71977	1.27891	1.57087
4220.000	4.34305	2.73348	1.27100	1.64640
4221.000	4.32142	2.72366	1.31052	1.55098
4222.000	4.35484	2.67604	1.29076	1.60266
4223.000	4.31356	2.62670	1.25717	1.60069
4224.000	4.32339	2.74543	1.28484	1.64241
4225.000	4.28800	2.72180	1.25124	1.57884
4226.000	4.29390	2.74553	1.31250	1.58277
4227.000	4.29390	2.77522	1.26705	1.66428
4228.000	4.33715	2.75329	1.29274	1.58279
4229.000	4.35877	2.77696	1.29274	1.63843
4230.000	4.29783	2.76333	1.27891	1.58081
4231.000	4.31553	2.82660	1.29076	1.62850
4232.000	4.34894	2.78294	1.28681	1.66228
4233.000	4.28997	2.80294	1.29274	1.56887
4234.000	4.32535	2.78698	1.28681	1.65632
4235.000	4.29783	2.77917	1.25717	1.61659
4236.000	4.34501	2.79087	1.23939	1.54704
4237.000	4.33715	2.74933	1.27496	1.61857
4238.000	4.33125	2.75529	1.25124	1.59672
4239.000	4.33125	2.76123	1.31843	1.60264
4240.000	4.30373	2.75737	1.29867	1.56887
4241.000	4.39218	2.72538	1.34016	1.54897
4242.000	4.33322	2.82257	1.31645	1.53110
4243.000	4.35877	2.74926	1.25124	1.57287
4244.000	4.34108	2.76713	1.29274	1.54502
4245.000	4.37056	2.78088	1.29867	1.56092
4246.000	4.32929	2.76124	1.32238	1.57482
4247.000	4.38039	2.80657	1.30855	1.53309
4248.000	4.36270	2.78684	1.31052	1.56688
4249.000	4.34698	2.76513	1.28681	1.57285
4250.000	4.36663	2.76704	1.32831	1.61059
4251.000	4.37843	2.79668	1.30855	1.55694
4252.000	4.36860	2.76307	1.29867	1.52713
4253.000	4.35091	2.76314	1.32040	1.53904
4254.000	4.38629	2.83227	1.33424	1.52115
4255.000	4.34894	2.78689	1.32040	1.56687
4256.000	4.31749	2.78107	1.28286	1.63844
4257.000	4.39612	2.77089	1.30855	1.57284
4258.000	4.33518	2.77705	1.29472	1.61061
4259.000	4.39612	2.77682	1.30064	1.61855
4260.000	4.34894	2.77304	1.31250	1.60463
4261.000	4.32929	2.72363	1.30657	1.58079
4262.000	4.32535	2.79688	1.29076	1.58676
4263.000	4.31749	2.77711	1.30064	1.62452
4264.000	4.27424	2.75550	1.29472	1.59868
4265.000	4.33715	2.73944	1.30855	1.60662
4266.000	4.33715	2.83245	1.32436	1.54898
4267.000	4.32929	2.74145	1.29472	1.58477
4268.000	4.30176	2.77321	1.31448	1.59271
4269.000	4.31356	2.77317	1.26310	1.60268
4270.000	4.33125	2.83841	1.32238	1.59270
4271.000	4.30176	2.69800	1.28681	1.60465
4272.000	4.30176	2.77321	1.36585	1.64236
4273.000	4.30176	2.73165	1.30064	1.60067
4274.000	4.29587	2.71386	1.33621	1.59270
4275.000	4.29587	2.64853	1.29274	1.60862
4276.000	4.32339	2.64844	1.34807	1.58673
4277.000	4.28014	2.67432	1.38561	1.62048
4278.000	4.27228	2.70404	1.31448	1.60066
4279.000	4.33125	2.61476	1.33621	1.57680
4280.000	4.30176	2.65049	1.31843	1.57681
4281.000	4.28997	2.63074	1.33819	1.55891
4282.000	4.30963	2.68807	1.32436	1.57283
4283.000	4.30963	2.61879	1.33621	1.55692
4284.000	4.32732	2.60685	1.35399	1.55294
4285.000	4.28997	2.62480	1.30855	1.61855
4286.000	4.25851	2.57937	1.31645	1.57283
4287.000	4.28407	2.58720	1.35597	1.58672
4288.000	4.31159	2.58513	1.30855	1.55694
4289.000	4.26834	2.60903	1.35992	1.58076
4290.000	4.28800	2.55155	1.33028	1.58872
4291.000	4.23099	2.56956	1.37573	1.59664
4292.000	4.32732	2.59695	1.34412	1.54698
4293.000	4.30373	2.58318	1.33424	1.62251
4294.000	4.27817	2.58524	1.23939	1.56493
4295.000	4.30176	2.53566	1.35795	1.54101
4296.000	4.31159	2.56533	1.31843	1.60264
4297.000	4.31159	2.60691	1.29274	1.69010
4298.000	4.27228	2.57734	1.31052	1.59669
4299.000	4.32142	2.59895	1.33424	1.64238
4300.000	4.31553	2.57522	1.37968	1.66023
4301.000	4.26834	2.58131	1.30855	1.63445
4302.000	4.29587	2.64655	1.32633	1.64636
4303.000	4.28407	2.60898	1.34609	1.66026
4304.000	4.34894	2.57906	1.33621	1.65033
4305.000	4.31946	2.62074	1.32633	1.69008
4306.000	4.37843	2.58094	1.32238	1.63046
4307.000	4.33715	2.61078	1.36585	1.65627
4308.000	4.35287	2.63250	1.34609	1.60660
4309.000	4.35877	2.65227	1.39944	1.63240
4310.000	4.37253	2.65618	1.37968	1.62645
4311.000	4.37056	2.60274	1.38363	1.65228
4312.000	4.34305	2.62659	1.34807	1.54102
4313.000	4.31946	2.68804	1.34412	1.61256
4314.000	4.34698	2.68002	1.37178	1.59267
4315.000	4.35681	2.63050	1.31052	1.58675
4316.000	4.34305	2.63847	1.35399	1.56486
4317.000	4.33322	2.63059	1.39944	1.60855
4318.000	4.37056	2.66411	1.41129	1.58271
4319.000	4.36663	2.62057	1.38363	1.56087
4320.000	4.32142	2.63855	1.41525	1.56879
4321.000	4.36074	2.64237	1.37375	1.53504
4322.000	4.32535	2.68802	1.40142	1.54694
4323.000	4.34305	2.64045	1.36585	1.56883
4324.000	4.38039	2.72543	1.38758	1.63241
4325.000	4.33322	2.65830	1.35597	1.57678
4326.000	4.33322	2.63652	1.37375	1.57876
4327.000	4.28997	2.65647	1.36980	1.56088
4328.000	4.36270	2.66018	1.34412	1.63045
4329.000	4.28800	2.64658	1.35795	1.60063
4330.000	4.33518	2.68205	1.36585	1.57678
4331.000	4.34108	2.68994	1.38956	1.59266
4332.000	4.31553	2.66034	1.35004	1.50325
4333.000	4.39808	2.71151	1.40537	1.53899
4334.000	4.30570	2.64652	1.36783	1.56485
4335.000	4.32732	2.70583	1.35004	1.59467
4336.000	4.33715	2.66422	1.37178	1.56684
4337.000	4.28407	2.68619	1.40142	1.62445
4338.000	4.27817	2.68819	1.37771	1.55690
4339.000	4.25655	2.64075	1.39351	1.61253
4340.000	4.28997	2.66241	1.37968	1.56087
4341.000	4.28997	2.63074	1.40734	1.57277
4342.000	4.27031	2.64664	1.37573	1.62645
4343.000	4.32142	2.64250	1.35202	1.61256
4344.000	4.31749	2.64054	1.39154	1.55689
4345.000	4.26638	2.63478	1.39351	1.56881
4346.000	4.28997	2.61094	1.40537	1.55688
4347.000	4.31356	2.65045	1.41920	1.60258
4348.000	4.26441	2.64666	1.40339	1.55688
4349.000	4.27031	2.64664	1.44686	1.55884
4350.000	4.31553	2.68212	1.39944	1.52508
4351.000	4.27424	2.65455	1.45871	1.64031
4352.000	4.32929	2.70780	1.40734	1.57874
4353.000	4.29587	2.70000	1.40339	1.60855
4354.000	4.27424	2.64861	1.41327	1.58469
4355.000	4.29980	2.62080	1.40932	1.55290
4356.000	4.29390	2.64062	1.40339	1.61252
4357.000	4.27817	2.61098	1.40142	1.57079
4358.000	4.29194	2.63271	1.43105	1.59859
4359.000	4.30176	2.67029	1.39746	1.58868
4360.000	4.33518	2.63850	1.44291	1.67807
4361.000	4.28997	2.63667	1.42315	1.62443
4362.000	4.29390	2.67031	1.38956	1.55490
4363.000	4.31749	2.68409	1.40339	1.59066
4364.000	4.28997	2.64657	1.48045	1.61048
4365.000	4.26048	2.66647	1.38956	1.71785
4366.000	4.26638	2.66645	1.42908	1.62840
4367.000	4.27817	2.63276	1.42908	1.65622
4368.000	4.26638	2.69812	1.44686	1.58666
4369.000	4.27031	2.57933	1.42117	1.62642
4370.000	4.27817	2.64067	1.44093	1.66416
4371.000	4.31749	2.62470	1.40734	1.67810
4372.000	4.24672	2.56951	1.42710	1.65821
4373.000	4.23689	2.61112	1.45279	1.60057
4374.000	4.30570	2.56535	1.42908	1.58270
4375.000	4.29783	2.54360	1.50415	1.58662
4376.000	4.25065	2.60315	1.42117	1.61649
4377.000	4.22705	2.61115	1.45081	1.59858
4378.000	4.29390	2.56935	1.43698	1.67808
4379.000	4.29194	2.59509	1.42117	1.58270
4380.000	4.24475	2.56555	1.42908	1.68404
4381.000	4.28997	2.55352	1.44883	1.65621
4382.000	4.28014	2.59315	1.45279	1.64031
4383.000	4.23885	2.57151	1.48835	1.64624
4384.000	4.27817	2.53772	1.40932	1.66220
4385.000	4.24475	2.53783	1.42908	1.62443
4386.000	4.28997	2.55154	1.46266	1.70985
4387.000	4.26441	2.52787	1.42513	1.61847
4388.000	4.27228	2.52388	1.44488	1.63038
4389.000	4.31553	2.55344	1.46464	1.64428
4390.000	4.29194	2.53768	1.44291	1.62839
4391.000	4.30373	2.60495	1.45476	1.66415
4392.000	4.28211	2.56345	1.42908	1.69199
4393.000	4.28211	2.55157	1.52193	1.69192
4394.000	4.25851	2.54769	1.51601	1.69987
4395.000	4.25065	2.53385	1.47254	1.75952
4396.000	4.28211	2.53177	1.45871	1.69992
4397.000	4.26048	2.50610	1.46662	1.68402
4398.000	4.28211	2.51791	1.44883	1.68602
4399.000	4.28211	2.56939	1.51206	1.68994
4400.000	4.24672	2.49822	1.47847	1.71977
4401.000	4.28211	2.56741	1.47057	1.66215
4402.000	4.24082	2.48438	1.48242	1.76547
4403.000	4.29587	2.52974	1.56145	1.66805
4404.000	4.28604	2.49612	1.48242	1.70984
4405.000	4.26048	2.50016	1.46069	1.72972
4406.000	4.29194	2.50402	1.53181	1.67602
4407.000	4.29390	2.54559	1.46662	1.74561
4408.000	4.28604	2.46839	1.46859	1.69991
4409.000	4.26638	2.48430	1.48637	1.76149
4410.000	4.28014	2.48227	1.50810	1.73366
4411.000	4.28407	2.50602	1.52391	1.67801
4412.000	4.24672	2.52595	1.50810	1.73763
4413.000	4.22312	2.53592	1.47254	1.70388
4414.000	4.25261	2.47840	1.50613	1.67604
4415.000	4.25065	2.47445	1.54169	1.69985
4416.000	4.31159	2.55543	1.50613	1.68995
4417.000	4.31749	2.50591	1.48045	1.62638
4418.000	4.25065	2.50415	1.54564	1.62832
4419.000	4.24278	2.47249	1.51008	1.57866
4420.000	4.27424	2.51200	1.53379	1.64621
4421.000	4.27228	2.48824	1.57132	1.61041
4422.000	4.26245	2.51797	1.54564	1.58261
4423.000	4.31749	2.51779	1.54762	1.68991
4424.000	4.27621	2.52189	1.50810	1.60649
4425.000	4.27621	2.56149	1.53774	1.57666
4426.000	4.29390	2.52777	1.51206	1.61642
4427.000	4.24082	2.59131	1.50415	1.60649
4428.000	4.31553	2.54354	1.52589	1.59256
4429.000	4.32929	2.55141	1.52193	1.57866
4430.000	4.28604	2.51196	1.53379	1.54486
4431.000	4.31749	2.53759	1.53181	1.59057
4432.000	4.28407	2.51790	1.49032	1.58663
4433.000	4.36860	2.53544	1.49823	1.53495
4434.000	4.32929	2.55537	1.52984	1.58064
4435.000	4.28800	2.59709	1.48242	1.57074
4436.000	4.27424	2.57338	1.51403	1.63629
4437.000	4.30570	2.60891	1.50613	1.57469
4438.000	4.31946	2.61876	1.52391	1.57667
4439.000	4.37253	2.62451	1.54762	1.58062
4440.000	4.33322	2.62465	1.54762	1.58857
4441.000	4.36467	2.59484	1.49230	1.52105
4442.000	4.35877	2.61862	1.53181	1.56673
4443.000	4.30570	2.60693	1.48045	1.58862
4444.000	4.32732	2.62071	1.49032	1.59259
4445.000	4.36860	2.58889	1.49823	1.60848
4446.000	4.36860	2.64036	1.51601	1.58462
4447.000	4.30963	2.57722	1.52193	1.60250
4448.000	4.30176	2.63070	1.52984	1.58859
4449.000	4.32929	2.57319	1.53181	1.58262
4450.000	4.30766	2.60494	1.52984	1.60647
4451.000	4.31749	2.56531	1.51206	1.57071
4452.000	4.29194	2.59311	1.53774	1.58858
4453.000	4.37843	2.61855	1.52391	1.59654
4454.000	4.32142	2.63459	1.54762	1.54684
4455.000	4.33125	2.59100	1.53774	1.54884
4456.000	4.35681	2.65228	1.53774	1.58858
4457.000	4.34108	2.58107	1.56145	1.58459
4458.000	4.29587	2.59112	1.48835	1.62240
4459.000	4.34108	2.59295	1.51008	1.58661
4460.000	4.35287	2.64635	1.50020	1.59656
4461.000	4.39022	2.55121	1.49823	1.61842
4462.000	4.35877	2.61268	1.54564	1.65018
4463.000	4.31749	2.57125	1.53379	1.61442
4464.000	4.33715	2.57712	1.51008	1.66610
4465.000	4.35877	2.61862	1.51601	1.57667
4466.000	4.33322	2.58703	1.51403	1.60450
4467.000	4.34501	2.63055	1.57330	1.60842
4468.000	4.39415	2.61454	1.53971	1.60646
4469.000	4.33322	2.63850	1.49032	1.59855
4470.000	4.28997	2.59114	1.54367	1.63825
4471.000	4.34698	2.60876	1.54762	1.64819
4472.000	4.41577	2.61050	1.55947	1.59453
4473.000	4.29980	2.61882	1.51206	1.60648
4474.000	4.34501	2.56522	1.56540	1.55478
4475.000	4.32732	2.57716	1.59108	1.56867
4476.000	4.32929	2.58309	1.54367	1.65813
4477.000	4.36860	2.58493	1.56540	1.63625
4478.000	4.27817	2.52980	1.54564	1.61639
4479.000	4.31356	2.52573	1.54959	1.68594
4480.000	4.30373	2.52972	1.53971	1.56871
4481.000	4.35877	2.45628	1.57923	1.64021
4482.000	4.35091	2.51372	1.52984	1.72172
4483.000	4.32732	2.54152	1.56540	1.63426
4484.000	4.31159	2.52771	1.51996	1.66808
4485.000	4.34501	2.48206	1.54564	1.62236
4486.000	4.31356	2.44850	1.50218	1.63829
4487.000	4.31159	2.52375	1.58515	1.78128
4488.000	4.25851	2.48432	1.54367	1.74356
4489.000	4.29587	2.49410	1.53971	1.77138
4490.000	4.29390	2.46441	1.56540	1.71970
4491.000	4.32339	2.40491	1.51206	1.78531
4492.000	4.27031	2.41498	1.57132	1.74752
4493.000	4.26638	2.44073	1.58120	1.77532
4494.000	4.30570	2.47625	1.62269	1.79714
4495.000	4.28407	2.35750	1.50020	1.69790
4496.000	4.30766	2.42872	1.53576	1.73960
4497.000	4.30176	2.49210	1.52391	1.75749
4498.000	4.28997	2.40897	1.50810	1.75949
4499.000	4.26245	2.45659	1.53774	1.81708
4500.000	4.27621	2.44070	1.51403	1.69391
4501.000	4.30176	2.47428	1.51403	1.68001
4502.000	4.30176	2.45844	1.50218	1.73962
4503.000	4.29980	2.47825	1.51798	1.72173
4504.000	4.35877	2.51766	1.47649	1.75951
4505.000	4.34501	2.49790	1.49823	1.79129
4506.000	4.31356	2.56136	1.51206	1.73763
4507.000	4.37646	2.53343	1.53774	1.75748
4508.000	4.36074	2.53547	1.47452	1.74958
4509.000	4.35091	2.52560	1.55749	1.74753
4510.000	4.36467	2.49586	1.61083	1.72960
4511.000	4.33125	2.51775	1.48242	1.75355
4512.000	4.33911	2.51376	1.52391	1.76345
4513.000	4.37056	2.49584	1.51996	1.79325
4514.000	4.35484	2.50777	1.54367	1.75747
4515.000	4.35091	2.48996	1.48440	1.75355
4516.000	4.30176	2.48022	1.52786	1.77338
4517.000	4.33125	2.49003	1.50810	1.77340
4518.000	4.36860	2.53148	1.55749	1.73759
4519.000	4.39218	2.50764	1.50810	1.79525
4520.000	4.37843	2.52551	1.50613	1.77737
4521.000	4.36663	2.51763	1.51403	1.75750
4522.000	4.34305	2.52761	1.50218	1.77340
4523.000	4.33125	2.52369	1.49625	1.71380
4524.000	4.31946	2.48017	1.52984	1.77934
4525.000	4.37056	2.51168	1.50020	1.70386
4526.000	4.35484	2.58696	1.52193	1.64423
4527.000	4.38236	2.50174	1.52984	1.72371
4528.000	4.34894	2.52363	1.52984	1.68397
4529.000	4.35091	2.54540	1.51798	1.68596
4530.000	4.37253	2.54929	1.53576	1.67601
4531.000	4.33715	2.55337	1.50020	1.64027
4532.000	4.37646	2.49978	1.54169	1.62832
4533.000	4.37056	2.49980	1.53576	1.65416
4534.000	4.32732	2.53756	1.49823	1.64226
4535.000	4.40005	2.56305	1.50810	1.63629
4536.000	4.36663	2.51169	1.49625	1.68797
4537.000	4.33125	2.54943	1.53379	1.67800
4538.000	4.30963	2.55148	1.54762	1.65613
4539.000	4.37056	2.59878	1.51601	1.68994
4540.000	4.36074	2.51963	1.50415	1.72373
4541.000	4.33518	2.52763	1.52786	1.65615
4542.000	4.34894	2.55333	1.50613	1.65815
4543.000	4.34894	2.57708	1.51798	1.69789
4544.000	4.33518	2.52565	1.51798	1.62039
4545.000	4.35877	2.52755	1.54367	1.66806
4546.000	4.38825	2.50370	1.46464	1.68998
4547.000	4.36074	2.53547	1.46662	1.72972
4548.000	4.34501	2.49592	1.48637	1.74361
4549.000	4.32535	2.53559	1.52589	1.68397
4550.000	4.32339	2.50985	1.56145	1.65016
4551.000	4.34305	2.50979	1.55157	1.73362
4552.000	4.37646	2.55125	1.55157	1.73164
4553.000	4.31749	2.49205	1.55749	1.66805
4554.000	4.31749	2.52769	1.48242	1.70189
4555.000	4.35484	2.49193	1.52589	1.74159
4556.000	4.36467	2.45824	1.50415	1.70584
4557.000	4.32535	2.49401	1.54169	1.67800
4558.000	4.28800	2.46047	1.53576	1.74158
4559.000	4.37646	2.53541	1.51206	1.68597
4560.000	4.34108	2.45633	1.55947	1.74753
4561.000	4.33125	2.48013	1.51403	1.73961
4562.000	4.33322	2.50586	1.51601	1.71974
4563.000	4.32929	2.51379	1.55749	1.70382
4564.000	4.29390	2.49807	1.56145	1.66805
4565.000	4.28997	2.46046	1.56935	1.72765
4566.000	4.31356	2.44454	1.55354	1.72369
4567.000	4.31553	2.44256	1.53971	1.67005
4568.000	4.30373	2.39705	1.55749	1.63626
4569.000	4.30570	2.46239	1.56145	1.74554
4570.000	4.30766	2.44258	1.51403	1.75948
4571.000	4.31159	2.38514	1.56935	1.63426
4572.000	4.36860	2.39090	1.53576	1.68198
4573.000	4.32535	2.37718	1.51996	1.65020
4574.000	4.31159	2.38118	1.56342	1.66606
4575.000	4.33125	2.35933	1.60293	1.62231
4576.000	4.29390	2.41094	1.58515	1.70975
4577.000	4.29980	2.32774	1.56540	1.66407
4578.000	4.32732	2.36133	1.54762	1.65812
4579.000	4.29390	2.30597	1.57527	1.68989
4580.000	4.31356	2.39702	1.57725	1.70976
4581.000	4.31749	2.39502	1.55947	1.68593
4582.000	4.30766	2.35347	1.61676	1.65012
4583.000	4.25065	2.41108	1.56145	1.72169
4584.000	4.31946	2.39106	1.62269	1.64018
4585.000	4.30373	2.36932	1.56935	1.69983
4586.000	4.29194	2.37332	1.56145	1.71772
4587.000	4.32732	2.40093	1.63059	1.66600
4588.000	4.29390	2.35549	1.61281	1.64814
4589.000	4.27817	2.38326	1.59700	1.73557
4590.000	4.28800	2.39314	1.61478	1.73556
4591.000	4.30963	2.36732	1.57725	1.77930
4592.000	4.27031	2.38725	1.61083	1.75146
4593.000	4.21132	2.38545	1.58910	1.80313
4594.000	4.27621	2.36347	1.62071	1.78323
4595.000	4.26245	2.45263	1.64046	1.76136
4596.000	4.31553	2.36929	1.60096	1.81901
4597.000	4.29587	2.42480	1.60096	1.79517
4598.000	4.29587	2.33766	1.55947	1.83494
4599.000	4.30570	2.41882	1.59305	1.85478
4600.000	4.29980	2.38716	1.63256	1.87064
4601.000	4.27621	2.40506	1.58318	1.88459
4602.000	4.28407	2.41295	1.58318	1.76936
4603.000	4.31159	2.41088	1.56935	1.78725
4604.000	4.33518	2.44645	1.63059	1.79117
4605.000	4.31553	2.41285	1.56540	1.74752
4606.000	4.31749	2.45047	1.61873	1.76337
4607.000	4.30766	2.44258	1.57725	1.78129
4608.000	4.33911	2.42268	1.60491	1.74947
4609.000	4.25655	2.39720	1.60096	1.87464
4610.000	4.32732	2.45836	1.60096	1.78921
4611.000	4.29783	2.40499	1.55354	1.79521
4612.000	4.27424	2.37139	1.58515	1.83293
4613.000	4.27031	2.42092	1.57527	1.85678
4614.000	4.29783	2.41093	1.57527	1.79321
4615.000	4.26834	2.36943	1.57132	1.75546
4616.000	4.36074	2.39885	1.56540	1.78328
4617.000	4.30963	2.42871	1.61281	1.75344
4618.000	4.34698	2.40681	1.54959	1.75151
4619.000	4.30176	2.36933	1.59108	1.82299
4620.000	4.29194	2.41491	1.60886	1.78722
4621.000	4.32142	2.43066	1.57923	1.77731
4622.000	4.28407	2.39513	1.59503	1.80114
4623.000	4.29783	2.39509	1.60096	1.76338
4624.000	4.32339	2.41085	1.55552	1.80515
4625.000	4.31553	2.40691	1.59108	1.72763
4626.000	4.34108	2.37317	1.61478	1.75940
4627.000	4.33125	2.42468	1.55552	1.70580
4628.000	4.34894	2.35532	1.54367	1.75747
4629.000	4.32732	2.39301	1.58515	1.70578
4630.000	4.30766	2.33762	1.58910	1.67200
4631.000	4.30766	2.34158	1.58515	1.77731
4632.000	4.33518	2.31971	1.58318	1.75943
4633.000	4.28800	2.29213	1.57132	1.70976
4634.000	4.32339	2.34946	1.53774	1.75549
4635.000	4.35091	2.38106	1.61873	1.69184
4636.000	4.34305	2.32959	1.59700	1.74551
4637.000	4.31159	2.25640	1.57725	1.74751
4638.000	4.32535	2.31578	1.57725	1.68989
4639.000	4.33125	2.39894	1.52193	1.76345
4640.000	4.32142	2.35738	1.55157	1.72568
4641.000	4.35091	2.33551	1.53971	1.69986
4642.000	4.32339	2.38510	1.58120	1.72366
4643.000	4.34501	2.39098	1.57725	1.72565
4644.000	4.38825	2.43044	1.57923	1.73559
4645.000	4.31946	2.45838	1.53971	1.70582
4646.000	4.34501	2.39494	1.50218	1.71181
4647.000	4.33518	2.41279	1.58318	1.73956
4648.000	4.36074	2.40083	1.57132	1.68990
4649.000	4.32142	2.44056	1.55552	1.73958
4650.000	4.32732	2.39895	1.55354	1.71177
4651.000	4.30176	2.40894	1.53181	1.71576
4652.000	4.37646	2.39484	1.53971	1.72370
4653.000	4.28211	2.41296	1.53971	1.71972
4654.000	4.31749	2.39106	1.54169	1.69588
4655.000	4.31749	2.43463	1.60096	1.66404
4656.000	4.31553	2.40097	1.54564	1.70780
4657.000	4.29783	2.38716	1.55354	1.69190
4658.000	4.34501	2.41672	1.55354	1.68196
4659.000	4.30176	2.41092	1.53576	1.71178
4660.000	4.28407	2.45256	1.53774	1.67204
4661.000	4.35484	2.42857	1.56342	1.65016
4662.000	4.40005	2.40862	1.58120	1.69585
4663.000	4.33911	2.48604	1.59108	1.68789
4664.000	4.30570	2.41684	1.49625	1.69393
4665.000	4.28800	2.42086	1.56540	1.63029
4666.000	4.29194	2.42679	1.55749	1.67600
4667.000	4.34894	2.37314	1.56737	1.65215
4668.000	4.32339	2.42867	1.55947	1.69984
4669.000	4.31946	2.38710	1.52391	1.66013
4670.000	4.35091	2.43848	1.54367	1.66806
4671.000	4.30176	2.41686	1.53181	1.71576
4672.000	4.28800	2.44264	1.51601	1.70981
4673.000	4.33715	2.40288	1.53576	1.63031
4674.000	4.32339	2.41085	1.54367	1.62633
4675.000	4.29194	2.37134	1.59108	1.70180
4676.000	4.28604	2.36740	1.59503	1.72167
4677.000	4.35287	2.43254	1.53774	1.75549
4678.000	4.32142	2.44650	1.54762	1.73561
4679.000	4.33125	2.44053	1.56737	1.66804
4680.000	4.32339	2.45243	1.57527	1.76937
4681.000	4.35091	2.42462	1.51601	1.67007
4682.000	4.33125	2.44449	1.54959	1.72170
4683.000	4.32535	2.46431	1.58318	1.70975
4684.000	4.33518	2.45239	1.57330	1.71572
4685.000	4.31946	2.42076	1.54762	1.74356
4686.000	4.31946	2.45640	1.58910	1.67597
4687.000	4.29980	2.41092	1.51008	1.69193
4688.000	4.33518	2.43853	1.53576	1.73562
4689.000	4.38039	2.48789	1.58713	1.69584
4690.000	4.34305	2.41673	1.54564	1.73363
4691.000	4.33125	2.42270	1.59108	1.73756
4692.000	4.29390	2.38520	1.56342	1.76540
4693.000	4.32732	2.40093	1.50415	1.69988
4694.000	4.31553	2.45444	1.62861	1.69382
4695.000	4.25261	2.45266	1.55157	1.70183
4696.000	4.33911	2.45040	1.57330	1.70778
4697.000	4.28800	2.43076	1.56342	1.66407
4698.000	4.30570	2.39506	1.57527	1.74354
4699.000	4.31749	2.42473	1.55552	1.70183
4700.000	4.32339	2.41085	1.65429	1.67393
4701.000	4.31946	2.51185	1.56935	1.79321
4702.000	4.32732	2.41678	1.52984	1.71973
4703.000	4.32535	2.47421	1.58120	1.75148
4704.000	4.26638	2.44271	1.58120	1.70777
4705.000	4.28407	2.42879	1.52984	1.74954
4706.000	4.29587	2.37727	1.50613	1.75949
4707.000	4.31356	2.41484	1.55749	1.73362
4708.000	4.29194	2.35748	1.58120	1.70976
4709.000	4.33911	2.41674	1.53971	1.68197
4710.000	4.31356	2.39702	1.57725	1.72367
4711.000	4.29980	2.42082	1.56145	1.67997
4712.000	4.32142	2.42670	1.56737	1.71175
4713.000	4.30963	2.39703	1.56342	1.67599
4714.000	4.31159	2.35543	1.55157	1.70382
4715.000	4.30373	2.38913	1.61478	1.75940
4716.000	4.31749	2.40889	1.54564	1.77138
4717.000	4.28800	2.42482	1.59305	1.77134
4718.000	4.32142	2.46828	1.53576	1.72768
4719.000	4.30373	2.40893	1.56145	1.76938
4720.000	4.31749	2.36334	1.57527	1.85678
4721.000	4.29194	2.44659	1.58910	1.75346
4722.000	4.28997	2.44660	1.56737	1.80911
4723.000	4.32535	2.41282	1.56737	1.74752
4724.000	4.30570	2.37724	1.54367	1.75946
4725.000	4.30176	2.38517	1.58120	1.80910
4726.000	4.28997	2.42482	1.63256	1.78124
4727.000	4.30176	2.40299	1.61083	1.79715
4728.000	4.26638	2.38924	1.59108	1.72167
4729.000	4.29587	2.37727	1.58910	1.77929
4730.000	4.29980	2.35151	1.60688	1.74351
4731.000	4.28800	2.43076	1.57725	1.80910
4732.000	4.28997	2.37333	1.55947	1.76938
4733.000	4.31553	2.44454	1.58713	1.70180
4734.000	4.33125	2.43657	1.58515	1.73956
4735.000	4.30570	2.43863	1.58910	1.83293
4736.000	4.32339	2.41283	1.58120	1.77930
4737.000	4.29390	2.39312	1.56342	1.77931
4738.000	4.30963	2.44060	1.60688	1.84881
4739.000	4.28997	2.43472	1.62269	1.77926
4740.000	4.29390	2.46639	1.63849	1.81501
4741.000	4.29980	2.41290	1.62664	1.78919
4742.000	4.35287	2.40679	1.57923	1.80711
4743.000	4.28211	2.44860	1.57132	1.77136
4744.000	4.29390	2.38718	1.57527	1.75546
4745.000	4.33518	2.43655	1.63454	1.76534
4746.000	4.34698	2.46820	1.59305	1.75942
4747.000	4.31159	2.43069	1.53576	1.79722
4748.000	4.27817	2.41099	1.59503	1.79915
4749.000	4.32535	2.42272	1.60096	1.78723
4750.000	4.29587	2.40499	1.63454	1.77726
4751.000	4.30963	2.45050	1.61281	1.83490
4752.000	4.29783	2.43865	1.62071	1.80509
4753.000	4.31356	2.42870	1.58515	1.73558
4754.000	4.30570	2.45447	1.61676	1.80907
4755.000	4.28211	2.44860	1.59108	1.79319
4756.000	4.30373	2.43269	1.57923	1.75347
4757.000	4.28604	2.37730	1.63849	1.76931
4758.000	4.33715	2.40486	1.61281	1.80708
4759.000	4.30963	2.41881	1.63849	1.73355
4760.000	4.29587	2.43272	1.59108	1.76339
4761.000	4.31749	2.40096	1.59108	1.79717
4762.000	4.31356	2.36929	1.56540	1.75745
4763.000	4.32339	2.43857	1.63256	1.77329
4764.000	4.31946	2.40492	1.57725	1.75546
4765.000	4.34305	2.39296	1.60886	1.72762
4766.000	4.34305	2.41277	1.61676	1.70575
4767.000	4.28997	2.44066	1.62071	1.77529
4768.000	4.28800	2.34560	1.60491	1.74550
4769.000	4.28211	2.38325	1.57527	1.75745
4770.000	4.30373	2.36932	1.56935	1.75745
4771.000	4.33125	2.34151	1.60491	1.73755
4772.000	4.36074	2.32756	1.57132	1.64618
4773.000	4.29194	2.33371	1.60688	1.73159
4774.000	4.32929	2.38508	1.62269	1.71568
4775.000	4.33715	2.38704	1.62861	1.72561
4776.000	4.31159	2.30988	1.56145	1.72964
4777.000	4.31553	2.32175	1.61873	1.70973
4778.000	4.31749	2.35146	1.61873	1.71171
4779.000	4.29390	2.32776	1.62071	1.74350
4780.000	4.32339	2.32767	1.61873	1.68986
4781.000	4.31356	2.35543	1.61281	1.72165
4782.000	4.26638	2.35755	1.60293	1.71173
4783.000	4.27817	2.29216	1.61281	1.69384
4784.000	4.29587	2.35548	1.58120	1.67995
4785.000	4.30963	2.32771	1.64639	1.71566
4786.000	4.28014	2.28621	1.64244	1.69580
4787.000	4.28997	2.30599	1.61083	1.69781
4788.000	4.32535	2.28805	1.59700	1.64020
4789.000	4.30373	2.34160	1.63059	1.70375
4790.000	4.31159	2.29800	1.63651	1.69382
4791.000	4.31356	2.28413	1.62861	1.70972
4792.000	4.29194	2.30202	1.56935	1.67996
4793.000	4.32732	2.30983	1.60293	1.72166
4794.000	4.32732	2.28013	1.61083	1.71768
4795.000	4.34501	2.33157	1.61083	1.73755
4796.000	4.30570	2.32971	1.65429	1.73751
4797.000	4.34698	2.34344	1.61478	1.74350
4798.000	4.33715	2.37120	1.64441	1.73156
4799.000	4.31159	2.31186	1.59108	1.71968
4800.000	4.29587	2.34954	1.60491	1.75543
4801.000	4.32339	2.29598	1.60886	1.70377
4802.000	4.28407	2.29610	1.61281	1.67794
4803.000	4.27621	2.34366	1.56935	1.70977
4804.000	4.31159	2.32177	1.64639	1.74944
4805.000	4.31946	2.36531	1.57725	1.70181
4806.000	4.33322	2.36923	1.64837	1.68586
4807.000	4.34894	2.34344	1.60293	1.69583
4808.000	4.28997	2.30599	1.62664	1.70574
4809.000	4.32732	2.31776	1.59898	1.71769
4810.000	4.34305	2.33949	1.62664	1.71369
4811.000	4.30373	2.30000	1.57527	1.78526
4812.000	4.33911	2.32960	1.61083	1.70377
4813.000	4.29783	2.32973	1.56935	1.72566
4814.000	4.30570	2.34951	1.57923	1.74751
4815.000	4.31159	2.28413	1.63849	1.72163
4816.000	4.35287	2.32362	1.58120	1.78128
4817.000	4.32732	2.30785	1.60293	1.77729
4818.000	4.34698	2.29987	1.61676	1.71966
