time (ms)	lx (deg)	ly (deg)	rx (deg)	ry (deg)
0.000	5.45188	2.22292	3.66825	2.03017
1.000	5.42641	2.21114	3.68006	2.08566
2.000	5.44012	2.25262	3.64856	2.09169
3.000	5.44600	2.24073	3.67416	2.04404
4.000	5.46559	2.22484	3.70172	2.04794
5.000	5.42053	2.21710	3.70566	2.05586
6.000	5.45384	2.22884	3.69581	2.06382
7.000	5.44796	2.28621	3.62690	2.04018
8.000	5.42641	2.25860	3.67022	2.08172
9.000	5.46755	2.22681	3.68400	2.11143
10.000	5.45188	2.27433	3.68597	2.02815
11.000	5.45775	2.22487	3.71944	2.08161
12.000	5.44600	2.22096	3.67416	2.02025
13.000	5.45775	2.28024	3.70172	2.05984
14.000	5.38330	2.20141	3.69778	2.06580
15.000	5.42053	2.23687	3.70172	2.06777
16.000	5.48126	2.24060	3.69975	2.11139
17.000	5.42641	2.24278	3.70763	2.09948
18.000	5.44796	2.25852	3.69385	2.03805
19.000	5.44796	2.18931	3.68597	2.05194
20.000	5.40681	2.25670	3.68991	2.06780
21.000	5.47343	2.18329	3.68203	2.06187
22.000	5.45775	2.23278	3.71156	2.12326
23.000	5.42249	2.17358	3.67810	2.11541
24.000	5.49497	2.17530	3.68794	2.06582
25.000	5.47734	2.22282	3.67022	2.03810
26.000	5.40289	2.18750	3.73716	2.07363
27.000	5.44796	2.20711	3.70172	2.04993
28.000	5.43816	2.16364	3.74503	2.05776
29.000	5.44796	2.24270	3.70960	2.06577
30.000	5.41269	2.18153	3.70763	2.06181
31.000	5.45188	2.27235	3.67613	2.05990
32.000	5.42445	2.18940	3.71353	2.07171
33.000	5.45384	2.23477	3.66234	2.11148
34.000	5.42249	2.19336	3.73716	2.07958
35.000	5.44012	2.14781	3.71550	2.11532
36.000	5.42445	2.21115	3.74109	2.10733
37.000	5.44404	2.17944	3.72731	2.09348
38.000	5.44600	2.14977	3.71353	2.12127
39.000	5.43620	2.19133	3.71747	2.07368
40.000	5.43816	2.17946	3.67810	2.06386
41.000	5.44992	2.18733	3.67810	2.12136
42.000	5.44992	2.18535	3.75291	2.08748
43.000	5.48714	2.21290	3.71156	2.08559
44.000	5.45971	2.17345	3.68597	2.02022
45.000	5.43228	2.15179	3.71550	2.03205
46.000	5.44796	2.17745	3.68400	2.01229
47.000	5.47147	2.19516	3.72338	2.09151
48.000	5.42249	2.16172	3.69975	2.03010
49.000	5.44796	2.14976	3.65053	2.07384
50.000	5.41073	2.15978	3.66825	2.08173
51.000	5.39506	2.15390	3.68794	2.03409
52.000	5.43620	2.17749	3.71156	2.04792
53.000	5.43816	2.19330	3.67613	2.04800
54.000	5.44796	2.22491	3.66038	2.05200
55.000	5.44208	2.19131	3.68597	2.05591
56.000	5.39310	2.22906	3.67416	2.03016
57.000	5.43620	2.17156	3.68597	2.07970
58.000	5.39701	2.13016	3.71747	2.08359
59.000	5.41857	2.21513	3.66038	2.06390
60.000	5.44796	2.12405	3.68203	2.05790
61.000	5.46951	2.13386	3.65644	2.05400
62.000	5.46951	2.13386	3.68203	2.06385
63.000	5.44208	2.16758	3.69581	2.06580
64.000	5.41073	2.15583	3.66431	2.09165
65.000	5.46755	2.15958	3.71353	2.10145
66.000	5.44404	2.19921	3.69778	2.11735
67.000	5.48322	2.19907	3.64659	2.05997
68.000	5.49889	2.20692	3.71353	2.10145
69.000	5.42445	2.19731	3.67810	2.06782
70.000	5.43620	2.14387	3.70960	2.03405
71.000	5.41073	2.18351	3.66038	2.08769
72.000	5.48126	2.18524	3.66825	2.09759
73.000	5.41269	2.18351	3.61903	2.08977
74.000	5.42053	2.15184	3.68203	2.09557
75.000	5.45188	2.18732	3.67416	2.09956
76.000	5.43032	2.16367	3.68794	2.09358
77.000	5.46559	2.17936	3.67613	2.06585
78.000	5.44012	2.10825	3.66431	2.06786
79.000	5.42053	2.14788	3.69975	2.07372
80.000	5.42445	2.15182	3.70763	2.10146
81.000	5.44796	2.10229	3.70566	2.05785
82.000	5.52044	2.18905	3.67219	2.05792
83.000	5.48518	2.16940	3.67022	2.07181
84.000	5.54394	2.18303	3.71550	2.06576
85.000	5.50673	2.22667	3.70960	2.00827
86.000	5.50085	2.26623	3.63675	2.09370
87.000	5.40877	2.28042	3.63084	2.08578
88.000	5.29706	2.26106	3.54222	2.00269
89.000	5.12844	2.25771	3.36691	1.89792
90.000	4.94600	2.26230	3.21715	1.83273
91.000	4.74579	2.16399	3.11860	1.63047
92.000	4.41380	2.10557	2.89582	1.55734
93.000	4.11299	1.94388	2.58811	1.44057
94.000	3.82574	1.88904	2.40657	1.24608
95.000	3.55798	1.77258	2.16576	1.12905
96.000	3.23883	1.66402	1.86761	1.02391
97.000	2.99244	1.52544	1.66417	0.98824
98.000	2.83666	1.47403	1.50020	0.99627
99.000	2.59008	1.41673	1.30262	0.90886
100.000	2.39671	1.27192	1.12279	0.81347
101.000	2.20525	1.17472	0.93899	0.70214
102.000	2.14405	1.04560	0.83028	0.61863
103.000	1.94067	0.94833	0.70575	0.62859
104.000	1.82416	0.86490	0.57331	0.57092
105.000	1.76491	0.75956	0.45865	0.53711
106.000	1.73923	0.72378	0.38353	0.49336
107.000	1.69775	0.74965	0.30446	0.55105
108.000	1.67997	0.69597	0.28073	0.53514
109.000	1.69775	0.72181	0.19770	0.55503
110.000	1.70762	0.76952	0.15025	0.56100
111.000	1.67997	0.74170	0.07315	0.55901
112.000	1.65232	0.84311	0.05733	0.59482
113.000	1.67602	0.83515	0.00395	0.66643
114.000	1.69972	0.88683	0.04349	0.65847
115.000	1.71750	0.92857	-0.02966	0.70820
116.000	1.71750	0.91465	-0.06722	0.70224
117.000	1.75700	0.91662	-0.04152	0.68831
118.000	1.79848	0.98220	-0.02372	0.68831
119.000	1.77478	0.96432	-0.01582	0.64256
120.000	1.80243	1.02593	-0.02768	0.67638
121.000	1.79848	1.04780	0.02768	0.61670
122.000	1.78466	1.04781	0.04547	0.64256
123.000	1.83798	1.05573	0.02768	0.58686
124.000	1.89723	1.07557	0.05338	0.68036
125.000	1.89130	1.04377	0.06722	0.61869
126.000	1.90710	1.08749	0.07908	0.67240
127.000	1.91895	1.14115	0.04943	0.64057
128.000	1.93080	1.09940	0.06722	0.62068
129.000	1.96635	1.06757	0.11664	0.60675
130.000	1.95252	1.05168	0.05140	0.67638
131.000	1.97029	1.06558	0.05338	0.63858
132.000	1.94857	1.03380	0.01977	0.67041
133.000	1.97819	1.10334	0.04745	0.62665
134.000	1.96832	1.07950	0.00791	0.66444
135.000	2.01769	1.05363	-0.00989	0.65847
136.000	1.96240	1.04571	-0.01186	0.62665
137.000	1.99004	1.13315	-0.01384	0.67837
138.000	1.97029	1.12521	-0.04349	0.63262
139.000	2.01176	1.10531	-0.04547	0.72809
140.000	1.95055	1.06560	-0.04547	0.64654
141.000	1.99202	1.12718	-0.04152	0.68234
142.000	2.00781	1.14506	-0.06326	0.72412
143.000	1.99202	1.12321	-0.09490	0.67240
144.000	2.00781	1.14108	-0.03954	0.68632
145.000	1.96437	1.14708	-0.01977	0.66245
146.000	1.96437	1.11130	-0.03756	0.69030
147.000	1.97029	1.11130	-0.04152	0.74799
148.000	1.94660	1.09740	-0.05536	0.68234
149.000	1.95450	1.09938	-0.02966	0.68234
150.000	1.94462	1.15305	-0.00593	0.73008
151.000	1.95845	1.13118	-0.01582	0.73008
152.000	1.95845	1.14708	-0.04152	0.71616
153.000	1.93475	1.13716	-0.02768	0.69428
154.000	1.92093	1.14114	-0.02966	0.73605
155.000	1.98017	1.13315	-0.02372	0.72611
156.000	1.92685	1.10139	0.00791	0.71019
157.000	1.93278	1.10934	-0.00791	0.72809
158.000	1.95055	1.11727	-0.00989	0.78777
159.000	1.94265	1.10138	0.00791	0.72014
160.000	2.00781	1.13910	0.02372	0.78976
161.000	1.91895	1.12326	0.00989	0.69229
162.000	1.92685	1.13518	-0.05733	0.72611
163.000	1.93672	1.14908	-0.00791	0.75793
164.000	1.95055	1.08150	-0.01384	0.79970
165.000	1.98807	1.09141	-0.01582	0.68632
166.000	1.99004	1.12718	0.02175	0.74401
167.000	1.97424	1.12322	-0.01384	0.71019
168.000	1.95450	1.09740	-0.00593	0.75594
169.000	1.95845	1.12522	-0.02372	0.77384
170.000	1.91105	1.08351	-0.00395	0.75395
171.000	1.95450	1.12920	-0.02175	0.70423
172.000	1.93672	1.10933	-0.00395	0.71815
173.000	1.93870	1.10933	-0.03361	0.71218
174.000	1.96437	1.14509	0.02372	0.75196
175.000	1.95845	1.07553	-0.03559	0.73605
176.000	1.92685	1.08549	-0.04547	0.69826
177.000	1.94660	1.07554	-0.02570	0.73605
178.000	1.94462	1.11728	-0.07908	0.71616
179.000	1.96240	1.06957	-0.01779	0.69229
180.000	1.97819	1.07949	-0.08897	0.72809
181.000	1.92488	1.07953	-0.07315	0.74202
182.000	1.92290	1.07754	-0.06920	0.65847
183.000	1.90908	1.06960	-0.03163	0.64853
184.000	1.95647	1.11330	-0.03559	0.67439
185.000	1.89525	1.04178	-0.07710	0.73406
186.000	1.91105	1.08351	-0.03559	0.69229
187.000	1.91895	1.06363	-0.03756	0.66444
188.000	1.87156	1.06962	-0.02768	0.64654
189.000	1.88735	1.03980	-0.07315	0.69428
190.000	1.86563	1.05770	-0.07513	0.69428
191.000	1.90118	1.05768	-0.03163	0.69428
192.000	1.88341	1.06365	-0.02570	0.70621
193.000	1.87946	1.05173	-0.04943	0.63460
194.000	1.84193	1.05374	-0.04152	0.71218
195.000	1.89723	1.07358	-0.02966	0.64057
196.000	1.84786	1.04976	-0.05140	0.71616
197.000	1.84193	1.02591	-0.01582	0.69826
198.000	1.86366	1.00602	-0.04349	0.70224
199.000	1.81626	0.98617	-0.01186	0.70423
200.000	1.83008	1.05176	-0.02768	0.73605
201.000	1.82416	1.03387	-0.02768	0.69428
202.000	1.79651	1.00606	-0.03954	0.72412
203.000	1.77083	1.00408	-0.00198	0.75196
204.000	1.80836	1.02792	-0.06129	0.74600
205.000	1.78268	0.99613	-0.05931	0.80368
206.000	1.78663	0.99414	-0.05338	0.75594
207.000	1.79453	1.04184	-0.05338	0.76589
208.000	1.81428	0.99213	-0.07710	0.75594
209.000	1.85773	1.08752	-0.02372	0.79572
210.000	1.81428	0.98617	-0.07513	0.79771
211.000	1.83206	1.00604	-0.03954	0.74600
212.000	1.81231	1.00406	-0.04745	0.76390
213.000	1.85576	0.97819	-0.04349	0.78180
214.000	1.86366	0.98813	-0.06722	0.70820
215.000	1.83798	1.01796	-0.07710	0.71218
216.000	1.87748	1.01197	-0.06129	0.75992
217.000	1.83798	1.00206	-0.06920	0.72809
218.000	1.83403	1.05374	-0.06722	0.70224
219.000	1.85576	1.07957	-0.07117	0.69229
220.000	1.90513	1.00401	-0.07315	0.68831
221.000	1.87353	0.97818	-0.10874	0.74401
222.000	1.88933	1.01992	-0.06524	0.72611
223.000	1.90513	1.08749	-0.06129	0.75395
224.000	1.90118	1.00600	-0.13048	0.74003
225.000	1.88735	1.00203	-0.10874	0.73207
226.000	1.91895	1.01593	-0.10280	0.76788
227.000	1.90908	0.98612	-0.11664	0.71815
228.000	1.87551	0.99210	-0.07710	0.73804
229.000	1.93080	1.01393	-0.12060	0.70223
230.000	1.90118	1.00600	-0.12455	0.72610
231.000	1.93278	0.97418	-0.15025	0.67836
232.000	1.88933	0.98811	-0.03954	0.74401
233.000	1.90315	1.00798	-0.07908	0.70025
234.000	1.87748	1.00204	-0.08303	0.68632
235.000	1.83798	0.99808	-0.09885	0.70025
236.000	1.85181	1.02193	-0.07710	0.70224
237.000	1.85378	1.00404	-0.11269	0.74798
238.000	1.86958	0.99011	-0.06920	0.68632
239.000	1.84391	0.99212	-0.09094	0.71417
240.000	1.80046	0.97226	-0.08106	0.72213
241.000	1.79651	0.96232	-0.08303	0.72610
242.000	1.81033	1.02792	-0.01384	0.73008
243.000	1.76491	0.98620	-0.04152	0.76390
244.000	1.78466	0.94046	-0.08303	0.76788
245.000	1.81428	1.00008	-0.08303	0.76986
246.000	1.83008	0.96827	0.02966	0.78777
247.000	1.84391	0.95236	-0.02175	0.78578
248.000	1.80046	0.92455	-0.02570	0.86335
249.000	1.80046	0.94642	-0.07315	0.84545
250.000	1.80836	0.98220	-0.04943	0.78578
251.000	1.79651	0.95238	-0.05536	0.85340
252.000	1.80243	0.96232	-0.05536	0.80368
253.000	1.75108	0.91265	-0.03756	0.84744
254.000	1.75305	0.94644	-0.01186	0.75793
255.000	1.77478	0.93450	-0.00593	0.77583
256.000	1.73528	0.95838	-0.04943	0.80368
257.000	1.82218	0.94243	-0.03756	0.77782
258.000	1.79453	0.99612	-0.03756	0.78777
259.000	1.80243	0.91859	-0.04745	0.80965
260.000	1.74515	0.99018	-0.08897	0.80169
261.000	1.86168	0.96428	-0.05536	0.75992
262.000	1.79058	0.94642	-0.07710	0.76191
263.000	1.78071	0.92854	-0.05931	0.73804
264.000	1.82416	0.93845	-0.05140	0.73605
265.000	1.80638	0.98419	-0.06326	0.71417
266.000	1.80638	0.97226	-0.07117	0.78180
267.000	1.83206	0.93845	-0.11862	0.79572
268.000	1.82811	1.00008	-0.07908	0.72213
269.000	1.87551	1.02788	-0.11071	0.72014
270.000	1.82021	1.00604	-0.09094	0.70820
271.000	1.81428	1.00406	-0.06129	0.73008
272.000	1.81626	0.96828	-0.08501	0.75594
273.000	1.81033	0.98021	-0.10280	0.78777
274.000	1.86761	0.99409	-0.08897	0.75793
275.000	1.88735	1.01197	-0.12455	0.74202
276.000	1.92883	0.96424	-0.08897	0.74600
277.000	1.91303	1.01792	-0.08501	0.72610
278.000	1.88341	1.00800	-0.08303	0.70820
279.000	1.86168	0.96626	-0.08303	0.74600
280.000	1.87551	1.00204	-0.08106	0.69627
281.000	1.88538	1.03185	-0.09687	0.74202
282.000	1.87748	1.00402	-0.10083	0.72809
283.000	1.92093	0.95430	-0.09490	0.73406
284.000	1.87946	0.95830	-0.09687	0.72412
285.000	1.93080	0.98014	-0.12850	0.79373
286.000	1.89920	0.94438	-0.08106	0.74401
287.000	1.87748	0.97222	-0.10478	0.78777
288.000	1.87748	1.01396	-0.07513	0.73804
289.000	1.90710	0.93245	-0.11269	0.73406
290.000	1.85971	0.96229	-0.09885	0.75594
291.000	1.86168	0.91657	-0.09687	0.69030
292.000	1.86958	0.98415	-0.04547	0.75196
293.000	1.85378	0.93844	-0.04943	0.77185
294.000	1.87748	0.91457	-0.08501	0.81959
295.000	1.84391	0.93844	-0.03361	0.79175
296.000	1.87748	0.89469	-0.08303	0.73207
297.000	1.86168	0.92253	-0.06920	0.71616
298.000	1.82811	0.89869	-0.05338	0.72213
299.000	1.86366	0.93247	-0.06326	0.71019
300.000	1.84391	0.91857	-0.04745	0.72809
301.000	1.85576	0.93844	-0.05733	0.74401
302.000	1.80046	0.90268	-0.03361	0.73207
303.000	1.82021	0.90665	-0.04547	0.74202
304.000	1.80046	0.95437	-0.00395	0.70621
305.000	1.81823	0.94840	0.00593	0.65847
306.000	1.81231	0.92852	-0.01384	0.71019
307.000	1.80243	0.94045	-0.02966	0.69627
308.000	1.83601	0.95833	0.02175	0.71417
309.000	1.82613	0.98219	-0.04349	0.75196
310.000	1.81428	0.96430	-0.01977	0.70224
311.000	1.82218	0.99213	-0.00791	0.71019
312.000	1.84588	0.98416	0.00198	0.69627
313.000	1.83601	0.99013	0.03756	0.72014
314.000	1.81231	0.97822	-0.00989	0.69826
315.000	1.82218	0.99412	-0.02768	0.69627
316.000	1.77478	0.94842	-0.00593	0.71019
317.000	1.81823	0.93846	-0.00989	0.71616
318.000	1.77083	0.96234	-0.05931	0.76987
319.000	1.82021	0.94641	-0.04943	0.72412
320.000	1.80638	0.99412	-0.07908	0.74003
321.000	1.84391	0.98416	-0.04745	0.79970
322.000	1.76293	1.03192	-0.01186	0.77782
323.000	1.78861	0.91859	-0.02768	0.81760
324.000	1.78071	0.97426	-0.04943	0.82954
325.000	1.79256	1.00805	0.00989	0.79771
326.000	1.80243	0.95834	-0.08897	0.80567
327.000	1.75898	0.98222	-0.00791	0.81164
328.000	1.78071	0.96233	-0.02372	0.83550
329.000	1.77478	0.91661	-0.02768	0.79970
330.000	1.79651	0.93250	-0.00593	0.81561
331.000	1.80638	0.95635	0.02768	0.77782
332.000	1.84391	0.96230	-0.01186	0.82357
333.000	1.81033	0.93250	-0.00791	0.82954
334.000	1.82416	0.95436	-0.05338	0.83749
335.000	1.89723	0.95631	0.03163	0.79373
336.000	1.82218	1.01797	-0.00395	0.78777
337.000	1.81231	0.99015	-0.00198	0.81561
338.000	1.80441	0.95238	-0.00593	0.79970
339.000	1.80243	0.98021	-0.00593	0.82158
340.000	1.81033	0.94244	0.00989	0.84147
341.000	1.82021	0.95038	-0.02966	0.80965
342.000	1.82416	0.97026	-0.00989	0.83550
343.000	1.86761	0.95632	-0.00593	0.77583
344.000	1.81033	0.97226	0.01977	0.76191
345.000	1.81626	0.95039	-0.03954	0.79970
346.000	1.83008	0.95833	0.04349	0.79175
347.000	1.84391	0.93844	-0.04152	0.74202
348.000	1.85576	0.99012	-0.00198	0.76589
349.000	1.91698	0.96226	-0.04943	0.79373
350.000	1.82613	0.89074	-0.01977	0.71815
351.000	1.85773	0.96030	0.00000	0.75992
352.000	1.85378	0.92850	-0.00989	0.73008
353.000	1.86168	0.91657	-0.06722	0.73605
354.000	1.84588	0.90465	-0.03954	0.70820
355.000	1.82811	0.94640	-0.06524	0.76987
356.000	1.84391	0.92850	-0.03361	0.75395
357.000	1.85773	0.91657	-0.02768	0.79970
358.000	1.83996	0.88676	-0.02966	0.80766
359.000	1.83403	0.90068	-0.01384	0.73207
360.000	1.84588	0.96230	-0.03559	0.83749
361.000	1.85971	0.89868	-0.03361	0.76788
362.000	1.87748	0.89072	-0.07908	0.84346
363.000	1.83601	0.92255	-0.03559	0.78578
364.000	1.88143	0.90264	-0.05338	0.77782
365.000	1.85576	0.93446	-0.06722	0.77782
366.000	1.84588	0.94838	-0.02175	0.76987
367.000	1.85378	0.88874	-0.05536	0.77583
368.000	1.88735	0.94240	-0.03954	0.76390
369.000	1.89920	0.92450	-0.06129	0.77981
370.000	1.85378	0.90266	-0.05338	0.79572
371.000	1.93080	0.91256	-0.06524	0.83351
372.000	1.88933	0.93643	-0.07710	0.82556
373.000	1.89525	0.98016	-0.04349	0.77981
374.000	1.87946	0.90861	-0.14037	0.73605
375.000	1.81428	0.90864	-0.19572	0.68831
376.000	1.77676	0.82914	-0.27480	0.67637
377.000	1.68195	0.79140	-0.30248	0.56298
378.000	1.55354	0.77356	-0.36969	0.51126
379.000	1.48440	0.72785	-0.41319	0.47346
380.000	1.39549	0.68015	-0.49424	0.51125
381.000	1.26903	0.65632	-0.51401	0.47545
382.000	1.21370	0.60861	-0.62075	0.41178
383.000	1.16627	0.54299	-0.66622	0.39388
384.000	1.10698	0.53902	-0.68203	0.44957
385.000	1.09710	0.54300	-0.72750	0.44758
386.000	1.06548	0.53903	-0.71366	0.43564
387.000	1.03781	0.50920	-0.75715	0.50327
388.000	1.09908	0.54499	-0.76110	0.46349
389.000	1.15244	0.49327	-0.75715	0.51521
390.000	1.19789	0.55690	-0.67610	0.53312
391.000	1.24136	0.61457	-0.68599	0.50527
392.000	1.28879	0.57876	-0.59308	0.50329
393.000	1.31250	0.54097	-0.61482	0.57887
394.000	1.41920	0.60856	-0.58913	0.49533
395.000	1.38758	0.56482	-0.60296	0.46748
396.000	1.39746	0.66226	-0.59901	0.50130
397.000	1.44883	0.62645	-0.55947	0.51324
398.000	1.40142	0.67617	-0.60099	0.44560
399.000	1.39154	0.66822	-0.62471	0.47544
400.000	1.38758	0.65828	-0.55947	0.48539
401.000	1.35202	0.70204	-0.54959	0.53711
402.000	1.36387	0.70800	-0.55157	0.52119
403.000	1.37573	0.72788	-0.57529	0.55700
404.000	1.37375	0.73783	-0.56343	0.54307
405.000	1.39154	0.72191	-0.56540	0.53711
406.000	1.31052	0.71796	-0.54959	0.53711
407.000	1.35992	0.68215	-0.59110	0.54307
408.000	1.36980	0.73584	-0.56343	0.56098
409.000	1.41327	0.68413	-0.55947	0.57291
410.000	1.40537	0.70600	-0.51401	0.56297
411.000	1.41327	0.70998	-0.56145	0.57490
412.000	1.42513	0.71793	-0.53971	0.56297
413.000	1.39746	0.72390	-0.56145	0.56495
414.000	1.40142	0.76367	-0.59110	0.59280
415.000	1.39351	0.72788	-0.59901	0.58285
416.000	1.38758	0.74975	-0.59703	0.54506
417.000	1.43698	0.75968	-0.51796	0.58485
418.000	1.36980	0.69010	-0.57924	0.61468
419.000	1.41129	0.75174	-0.55354	0.57092
420.000	1.40142	0.76765	-0.52784	0.57291
421.000	1.39944	0.73384	-0.52784	0.57888
422.000	1.41525	0.72390	-0.55552	0.50727
423.000	1.40932	0.70202	-0.58320	0.55302
424.000	1.41129	0.75571	-0.58715	0.53313
425.000	1.41525	0.71395	-0.55750	0.58485
426.000	1.43896	0.70201	-0.58320	0.58285
427.000	1.41327	0.72191	-0.60099	0.51323
428.000	1.40142	0.74180	-0.56343	0.52318
429.000	1.44488	0.75172	-0.53773	0.54308
430.000	1.43303	0.73184	-0.54959	0.58684
431.000	1.44686	0.73184	-0.57529	0.58087
432.000	1.46662	0.79347	-0.56145	0.55899
433.000	1.45871	0.74774	-0.54959	0.54307
434.000	1.44883	0.75968	-0.57529	0.53313
435.000	1.48242	0.75768	-0.56738	0.57490
436.000	1.43105	0.73582	-0.55552	0.57888
437.000	1.45476	0.72388	-0.56738	0.60076
438.000	1.49032	0.70399	-0.58320	0.57888
439.000	1.44488	0.75371	-0.60099	0.60274
440.000	1.44488	0.79149	-0.55157	0.56893
441.000	1.46662	0.81535	-0.60099	0.57092
442.000	1.41129	0.73980	-0.58517	0.59280
443.000	1.41129	0.75372	-0.58122	0.59280
444.000	1.46662	0.70002	-0.56540	0.56893
445.000	1.44093	0.70798	-0.56936	0.61866
446.000	1.39351	0.67220	-0.57529	0.58286
447.000	1.44686	0.70997	-0.60494	0.54705
448.000	1.41525	0.68810	-0.57529	0.49334
449.000	1.42513	0.68412	-0.60494	0.59877
450.000	1.41129	0.66822	-0.58122	0.51920
451.000	1.45674	0.70797	-0.59901	0.55898
452.000	1.43500	0.68611	-0.56936	0.55700
453.000	1.41129	0.71395	-0.64250	0.51522
454.000	1.43896	0.66224	-0.64843	0.59279
455.000	1.44093	0.71593	-0.58715	0.56296
456.000	1.43896	0.67616	-0.63855	0.54307
457.000	1.45871	0.69207	-0.61878	0.54904
458.000	1.39549	0.66623	-0.54959	0.60872
459.000	1.48637	0.65030	-0.65041	0.60871
460.000	1.40142	0.69805	-0.62866	0.53909
461.000	1.39549	0.69606	-0.58715	0.54307
462.000	1.45081	0.66821	-0.64448	0.57290
463.000	1.44686	0.66821	-0.58913	0.56893
464.000	1.43105	0.66423	-0.61285	0.57092
465.000	1.44883	0.67815	-0.59703	0.59479
466.000	1.45476	0.70201	-0.61680	0.55301
467.000	1.42908	0.69009	-0.62668	0.55301
468.000	1.44291	0.65429	-0.57727	0.57888
469.000	1.43303	0.66423	-0.61482	0.58086
470.000	1.43105	0.66026	-0.63262	0.58882
471.000	1.44686	0.71195	-0.62668	0.59876
472.000	1.48045	0.67814	-0.64250	0.60075
473.000	1.49230	0.64035	-0.62075	0.57688
474.000	1.47452	0.64633	-0.63459	0.60871
475.000	1.43698	0.68810	-0.61482	0.62064
476.000	1.48242	0.65229	-0.64250	0.57688
477.000	1.43896	0.68014	-0.60494	0.55699
478.000	1.47452	0.69007	-0.59110	0.63059
479.000	1.44686	0.74178	-0.64250	0.63655
480.000	1.48242	0.67814	-0.59308	0.60473
481.000	1.45476	0.68610	-0.62866	0.64053
482.000	1.48637	0.65626	-0.65436	0.60075
483.000	1.47057	0.65627	-0.61680	0.61269
484.000	1.41920	0.65827	-0.59703	0.58086
485.000	1.43105	0.68412	-0.69389	0.54704
486.000	1.48045	0.62047	-0.62471	0.56893
487.000	1.47847	0.68013	-0.61878	0.56296
488.000	1.44488	0.63639	-0.60889	0.57092
489.000	1.45476	0.71593	-0.64645	0.53511
490.000	1.47847	0.66223	-0.61680	0.55301
491.000	1.44488	0.66224	-0.64250	0.56296
492.000	1.51798	0.69404	-0.63262	0.53511
493.000	1.50218	0.69404	-0.67610	0.56096
494.000	1.43303	0.69009	-0.62866	0.58285
495.000	1.44291	0.66423	-0.61087	0.52915
496.000	1.47254	0.67417	-0.62075	0.54506
497.000	1.48242	0.68410	-0.62668	0.58285
498.000	1.41525	0.67816	-0.61680	0.58285
499.000	1.44488	0.63043	-0.59308	0.51124
500.000	1.44488	0.60259	-0.61482	0.56296
501.000	1.45081	0.62247	-0.63459	0.48339
502.000	1.46069	0.65826	-0.63064	0.61070
503.000	1.41525	0.64833	-0.57331	0.49334
504.000	1.45871	0.65627	-0.60692	0.56097
505.000	1.43303	0.71792	-0.63657	0.53113
506.000	1.43303	0.63441	-0.67808	0.53709
507.000	1.45081	0.65429	-0.62668	0.54705
508.000	1.44883	0.63838	-0.62273	0.52318
509.000	1.42908	0.66622	-0.60296	0.55103
510.000	1.40537	0.65629	-0.61878	0.53710
511.000	1.40537	0.66225	-0.57924	0.51920
512.000	1.43896	0.71395	-0.65238	0.51124
513.000	1.43105	0.66821	-0.60889	0.50726
514.000	1.42710	0.66622	-0.60494	0.53113
515.000	1.41129	0.69606	-0.61878	0.56694
516.000	1.45279	0.65031	-0.58122	0.55501
517.000	1.42117	0.64037	-0.62668	0.50328
518.000	1.44883	0.65429	-0.61482	0.51124
519.000	1.45081	0.60457	-0.55552	0.46749
520.000	1.35795	0.66426	-0.61680	0.51920
521.000	1.36980	0.68414	-0.63064	0.52516
522.000	1.40537	0.63242	-0.59703	0.52119
523.000	1.37771	0.60857	-0.60692	0.59479
524.000	1.38166	0.60260	-0.63459	0.56495
525.000	1.40339	0.62845	-0.60099	0.49732
526.000	1.39154	0.61851	-0.57727	0.52517
527.000	1.41327	0.66225	-0.63262	0.56694
528.000	1.41920	0.65628	-0.61878	0.55898
529.000	1.45476	0.65429	-0.59110	0.51721
530.000	1.41129	0.62049	-0.60296	0.56097
531.000	1.42315	0.58867	-0.60889	0.55898
532.000	1.39154	0.62845	-0.56540	0.51324
533.000	1.41525	0.67418	-0.62273	0.55699
534.000	1.39549	0.63640	-0.57133	0.50130
535.000	1.40932	0.61850	-0.60099	0.54904
536.000	1.41525	0.64833	-0.61680	0.54307
537.000	1.40932	0.63839	-0.55157	0.47345
538.000	1.43303	0.62844	-0.56145	0.56297
539.000	1.41129	0.66822	-0.58715	0.57888
540.000	1.40537	0.61055	-0.55750	0.49533
541.000	1.39351	0.60459	-0.59506	0.58683
542.000	1.40932	0.63839	-0.56343	0.57490
543.000	1.38758	0.63641	-0.64645	0.52914
544.000	1.45476	0.62247	-0.60296	0.60672
545.000	1.41327	0.67816	-0.59703	0.47544
546.000	1.41722	0.60458	-0.60692	0.58484
547.000	1.43698	0.64634	-0.56145	0.58286
548.000	1.43105	0.69009	-0.59703	0.50727
549.000	1.41920	0.68015	-0.58913	0.59280
550.000	1.43896	0.62446	-0.58320	0.60672
551.000	1.43303	0.67815	-0.57529	0.58484
552.000	1.44686	0.66224	-0.55947	0.55103
553.000	1.47254	0.63241	-0.59901	0.52119
554.000	1.42117	0.67020	-0.60889	0.54307
555.000	1.42117	0.68810	-0.53180	0.53114
556.000	1.42908	0.60657	-0.62471	0.55500
557.000	1.45081	0.68014	-0.61482	0.50130
558.000	1.40537	0.66424	-0.56738	0.53512
559.000	1.39944	0.64635	-0.59308	0.52119
560.000	1.41525	0.66225	-0.56738	0.59280
561.000	1.44093	0.62446	-0.59110	0.52119
562.000	1.41920	0.62447	-0.60692	0.54307
563.000	1.41327	0.68413	-0.51796	0.53512
564.000	1.38561	0.61453	-0.60494	0.54904
565.000	1.43105	0.62248	-0.56936	0.55103
566.000	1.41129	0.64038	-0.59506	0.50528
567.000	1.45279	0.64832	-0.60296	0.56893
568.000	1.47452	0.67218	-0.57529	0.56495
569.000	1.48637	0.68410	-0.56343	0.51721
570.000	1.41129	0.63839	-0.51401	0.59480
571.000	1.43698	0.63838	-0.61482	0.52716
572.000	1.40537	0.63044	-0.58913	0.56495
573.000	1.40932	0.66424	-0.60099	0.54705
574.000	1.43698	0.64037	-0.61482	0.53710
575.000	1.42513	0.64833	-0.50808	0.59082
576.000	1.43105	0.62049	-0.57924	0.51920
577.000	1.40142	0.60856	-0.55947	0.52716
578.000	1.39549	0.68612	-0.60494	0.56893
579.000	1.40142	0.65629	-0.62471	0.55102
580.000	1.40142	0.61055	-0.56936	0.50926
581.000	1.42710	0.61452	-0.59703	0.61468
582.000	1.38956	0.59266	-0.61482	0.52119
583.000	1.45081	0.61054	-0.57331	0.55302
584.000	1.45871	0.70400	-0.53575	0.53114
585.000	1.40339	0.70203	-0.61878	0.52914
586.000	1.40932	0.62049	-0.59703	0.58683
587.000	1.40142	0.64436	-0.56145	0.56694
588.000	1.43105	0.63640	-0.59308	0.53313
589.000	1.40537	0.63044	-0.56540	0.48738
590.000	1.42908	0.56878	-0.55552	0.55899
591.000	1.40339	0.65032	-0.51598	0.49335
592.000	1.43303	0.68014	-0.60296	0.52318
593.000	1.41129	0.66424	-0.59110	0.54108
594.000	1.37178	0.69010	-0.57529	0.48936
595.000	1.38363	0.67220	-0.59901	0.51323
596.000	1.38758	0.63641	-0.57727	0.56694
597.000	1.37968	0.66226	-0.58715	0.52915
598.000	1.36387	0.67817	-0.62668	0.59280
599.000	1.39154	0.67817	-0.59901	0.55898
600.000	1.37771	0.69010	-0.57133	0.54108
601.000	1.40734	0.69606	-0.64250	0.55699
602.000	1.34214	0.67818	-0.60889	0.57490
603.000	1.45476	0.71195	-0.64843	0.52715
604.000	1.39351	0.73186	-0.63459	0.59081
605.000	1.37968	0.75373	-0.61878	0.60473
606.000	1.40142	0.76765	-0.63855	0.60274
607.000	1.43500	0.76565	-0.63064	0.58086
608.000	1.42710	0.77162	-0.65436	0.57290
609.000	1.35795	0.73584	-0.61878	0.58882
610.000	1.34807	0.71596	-0.65831	0.63257
611.000	1.39154	0.77362	-0.64052	0.55301
612.000	1.41327	0.76963	-0.61878	0.53710
613.000	1.42710	0.76565	-0.58517	0.56495
614.000	1.37771	0.76567	-0.62273	0.53312
615.000	1.40142	0.80742	-0.66029	0.56892
616.000	1.40339	0.74975	-0.68006	0.62461
617.000	1.41525	0.73185	-0.63262	0.60871
618.000	1.40734	0.77958	-0.65634	0.61666
619.000	1.40339	0.75572	-0.64843	0.56296
620.000	1.37968	0.76964	-0.64250	0.55102
621.000	1.43896	0.77161	-0.64843	0.57887
622.000	1.39746	0.77361	-0.63657	0.59478
623.000	1.39549	0.73186	-0.65041	0.57290
624.000	1.42908	0.75173	-0.65238	0.57091
625.000	1.40142	0.73981	-0.68203	0.51124
626.000	1.42513	0.73185	-0.64250	0.61268
627.000	1.38363	0.79151	-0.64250	0.58683
628.000	1.44686	0.78950	-0.66029	0.57887
629.000	1.41327	0.79150	-0.63459	0.59279
630.000	1.43698	0.80343	-0.62075	0.63059
631.000	1.44291	0.77758	-0.67808	0.68429
632.000	1.43896	0.82530	-0.65436	0.57887
633.000	1.42513	0.80940	-0.63657	0.61070
634.000	1.41525	0.74378	-0.61482	0.62462
635.000	1.45081	0.77161	-0.69785	0.64052
636.000	1.47254	0.79944	-0.69192	0.59677
637.000	1.41525	0.76565	-0.63064	0.62860
638.000	1.45476	0.80740	-0.61482	0.64849
639.000	1.44291	0.77758	-0.63855	0.63456
640.000	1.46859	0.75569	-0.64250	0.60672
641.000	1.42315	0.81934	-0.63657	0.59279
642.000	1.43303	0.77559	-0.64052	0.62263
643.000	1.42710	0.77957	-0.63262	0.57290
644.000	1.45279	0.74775	-0.61680	0.59081
645.000	1.43896	0.79746	-0.60692	0.61269
646.000	1.43105	0.74974	-0.65634	0.62064
647.000	1.43303	0.74576	-0.63459	0.60871
648.000	1.43303	0.70798	-0.64843	0.58881
649.000	1.42908	0.77957	-0.65238	0.59677
650.000	1.43303	0.80542	-0.60889	0.59280
651.000	1.41722	0.79747	-0.65238	0.60672
652.000	1.49032	0.77358	-0.62668	0.57489
653.000	1.42315	0.77559	-0.65436	0.61666
654.000	1.43303	0.75173	-0.65041	0.61666
655.000	1.43105	0.73383	-0.61878	0.60473
656.000	1.41920	0.75969	-0.60692	0.61866
657.000	1.40142	0.70203	-0.59110	0.59877
658.000	1.41920	0.69606	-0.62668	0.63258
659.000	1.42117	0.70799	-0.59110	0.60473
660.000	1.40932	0.69208	-0.63459	0.60672
661.000	1.40932	0.71197	-0.59901	0.58484
662.000	1.45674	0.72985	-0.64448	0.60672
663.000	1.42513	0.70997	-0.56145	0.59479
664.000	1.43896	0.74974	-0.56343	0.62463
665.000	1.45476	0.70996	-0.57924	0.62860
666.000	1.41525	0.75173	-0.55157	0.59678
667.000	1.44291	0.73979	-0.59110	0.55103
668.000	1.41129	0.70202	-0.59703	0.55501
669.000	1.46069	0.78751	-0.58913	0.60672
670.000	1.36585	0.74777	-0.61087	0.62064
671.000	1.41525	0.70003	-0.59110	0.58683
672.000	1.40537	0.66822	-0.59110	0.54307
673.000	1.40339	0.70600	-0.63855	0.57290
674.000	1.41129	0.66026	-0.57331	0.61667
675.000	1.40537	0.71992	-0.57331	0.57490
676.000	1.37178	0.73584	-0.58517	0.65247
677.000	1.45871	0.74377	-0.57924	0.56296
678.000	1.40734	0.70998	-0.60296	0.53511
679.000	1.40734	0.71594	-0.56343	0.46550
680.000	1.42117	0.70600	-0.54366	0.47942
681.000	1.39746	0.73384	-0.57529	0.56097
682.000	1.38956	0.69606	-0.54761	0.55899
683.000	1.40339	0.70600	-0.55552	0.47544
684.000	1.37771	0.69010	-0.56936	0.55899
685.000	1.39154	0.72589	-0.53575	0.50926
686.000	1.35597	0.75175	-0.52191	0.51125
687.000	1.42117	0.74179	-0.51005	0.58087
688.000	1.37968	0.73783	-0.56145	0.57888
689.000	1.36585	0.71993	-0.51005	0.55899
690.000	1.36783	0.70999	-0.50412	0.57888
691.000	1.39549	0.76765	-0.53773	0.59082
692.000	1.37375	0.75572	-0.53575	0.58883
693.000	1.39549	0.74379	-0.56936	0.62662
694.000	1.39944	0.74379	-0.51598	0.59877
695.000	1.33424	0.79750	-0.51598	0.58286
696.000	1.33028	0.73983	-0.50808	0.55501
697.000	1.38956	0.76169	-0.53378	0.49733
698.000	1.36980	0.72988	-0.55552	0.54109
699.000	1.38363	0.74379	-0.48633	0.59878
700.000	1.37375	0.73186	-0.58320	0.56097
701.000	1.33819	0.68812	-0.48238	0.55104
702.000	1.35597	0.75374	-0.54959	0.54904
703.000	1.33028	0.75972	-0.53378	0.57490
704.000	1.30657	0.76171	-0.55947	0.56893
705.000	1.36190	0.76766	-0.53180	0.58286
706.000	1.31645	0.72790	-0.47645	0.57491
707.000	1.34807	0.69210	-0.51401	0.59082
708.000	1.34412	0.77363	-0.52191	0.58087
709.000	1.37178	0.72590	-0.52389	0.62463
710.000	1.35597	0.72988	-0.51005	0.54706
711.000	1.31843	0.75176	-0.59703	0.61866
712.000	1.33226	0.76369	-0.52389	0.59281
713.000	1.35795	0.74380	-0.52587	0.60673
714.000	1.33424	0.81340	-0.53971	0.62861
715.000	1.35202	0.75971	-0.45272	0.65050
716.000	1.35597	0.82930	-0.53180	0.66640
717.000	1.41327	0.79946	-0.51401	0.68431
718.000	1.37968	0.84520	-0.53971	0.71215
719.000	1.34609	0.81340	-0.50412	0.74398
720.000	1.32436	0.86312	-0.48435	0.70221
721.000	1.33621	0.86113	-0.51994	0.69425
722.000	1.32436	0.86113	-0.54168	0.72011
723.000	1.36783	0.91878	-0.48040	0.70619
724.000	1.38561	0.87304	-0.54366	0.79370
725.000	1.31645	0.86312	-0.50412	0.74199
726.000	1.33226	0.86511	-0.50215	0.74398
727.000	1.32436	0.85119	-0.51796	0.69226
728.000	1.33226	0.84920	-0.51203	0.75193
729.000	1.31052	0.81142	-0.46656	0.70818
730.000	1.31250	0.83330	-0.50412	0.70818
731.000	1.32238	0.77165	-0.50017	0.60872
732.000	1.38363	0.81140	-0.50808	0.65248
733.000	1.37375	0.82333	-0.49226	0.64055
734.000	1.36387	0.78754	-0.53180	0.61668
735.000	1.36387	0.80544	-0.47447	0.59082
736.000	1.36387	0.77362	-0.50017	0.61867
737.000	1.33819	0.75176	-0.50017	0.56695
738.000	1.32436	0.81937	-0.51598	0.61270
739.000	1.38758	0.80344	-0.52389	0.55302
740.000	1.37968	0.76567	-0.49424	0.56894
741.000	1.33028	0.80147	-0.50017	0.54507
742.000	1.33028	0.73784	-0.48040	0.58088
743.000	1.29076	0.77166	-0.53773	0.58087
744.000	1.34807	0.78556	-0.55157	0.59678
745.000	1.31843	0.80546	-0.47645	0.57491
746.000	1.35399	0.81539	-0.50412	0.56894
747.000	1.38758	0.78356	-0.51598	0.52915
748.000	1.32238	0.84522	-0.52784	0.52716
749.000	1.37771	0.86111	-0.51005	0.55700
750.000	1.39154	0.88894	-0.51203	0.58087
751.000	1.39549	0.83724	-0.51203	0.62264
752.000	1.43896	0.92472	-0.51796	0.58684
753.000	1.35597	0.88299	-0.50215	0.57491
754.000	1.39549	0.83526	-0.53773	0.59280
755.000	1.38956	0.83725	-0.49424	0.52916
756.000	1.38166	0.90486	-0.57727	0.62065
757.000	1.37968	0.86907	-0.56540	0.55302
758.000	1.35597	0.88299	-0.55354	0.57092
759.000	1.35597	0.85913	-0.54761	0.56297
760.000	1.38166	0.88696	-0.52784	0.62662
761.000	1.39351	0.85713	-0.52784	0.64651
762.000	1.39154	0.89292	-0.53575	0.61469
763.000	1.42710	0.88297	-0.57331	0.65844
764.000	1.35202	0.89691	-0.55947	0.57888
765.000	1.37771	0.89293	-0.55354	0.62662
766.000	1.35597	0.86112	-0.57133	0.65049
767.000	1.34609	0.89493	-0.51005	0.55700
768.000	1.36783	0.77163	-0.58320	0.57490
769.000	1.37968	0.81737	-0.53971	0.53910
770.000	1.34214	0.82533	-0.54959	0.56893
771.000	1.36585	0.86708	-0.53180	0.60872
772.000	1.31645	0.85915	-0.55354	0.56694
773.000	1.34609	0.83130	-0.51203	0.61071
774.000	1.33028	0.85914	-0.56540	0.60474
775.000	1.28286	0.81740	-0.54959	0.61866
776.000	1.31448	0.87903	-0.56540	0.60275
777.000	1.29274	0.84722	-0.54564	0.59280
778.000	1.32040	0.87107	-0.58517	0.59081
779.000	1.30064	0.86710	-0.54959	0.63458
780.000	1.32040	0.86909	-0.55552	0.57689
781.000	1.33028	0.88897	-0.55750	0.58286
782.000	1.29076	0.87705	-0.54564	0.57689
783.000	1.30262	0.91284	-0.53773	0.59877
784.000	1.30657	0.85915	-0.56540	0.63457
785.000	1.34214	0.84323	-0.51401	0.65049
786.000	1.28484	0.81342	-0.52191	0.56297
787.000	1.27100	0.82536	-0.52982	0.63060
788.000	1.28286	0.85120	-0.52191	0.63259
789.000	1.32436	0.84125	-0.53575	0.64253
790.000	1.28879	0.83529	-0.54168	0.60275
791.000	1.26903	0.83331	-0.53575	0.62861
792.000	1.22951	0.86514	-0.53575	0.65845
793.000	1.25322	0.84922	-0.50610	0.56297
794.000	1.26310	0.84922	-0.50412	0.64850
795.000	1.27891	0.81342	-0.51203	0.63657
796.000	1.26903	0.80746	-0.52784	0.61668
797.000	1.27693	0.82734	-0.60099	0.58285
798.000	1.26508	0.89496	-0.47249	0.60276
799.000	1.24729	0.84326	-0.56343	0.58087
800.000	1.28286	0.76768	-0.52587	0.57689
801.000	1.24334	0.84127	-0.54761	0.57689
802.000	1.27693	0.82138	-0.49226	0.54507
803.000	1.26508	0.82934	-0.53378	0.50727
804.000	1.25717	0.78758	-0.48633	0.57491
805.000	1.25520	0.82138	-0.48831	0.55899
806.000	1.28681	0.79353	-0.48238	0.52120
807.000	1.28681	0.77961	-0.48238	0.54109
808.000	1.24334	0.80548	-0.51401	0.55501
809.000	1.24927	0.79752	-0.49819	0.53512
810.000	1.28484	0.84524	-0.50017	0.56695
811.000	1.26310	0.86115	-0.48633	0.55700
812.000	1.23939	0.81741	-0.47249	0.65447
813.000	1.19789	0.86316	-0.50215	0.57093
814.000	1.22160	0.83531	-0.44284	0.61270
815.000	1.23939	0.87110	-0.50808	0.58485
816.000	1.24334	0.82139	-0.44284	0.59281
817.000	1.23741	0.79753	-0.45865	0.57690
818.000	1.22753	0.80350	-0.46656	0.59480
819.000	1.24532	0.82338	-0.45865	0.64055
820.000	1.27693	0.82138	-0.45865	0.62464
821.000	1.26705	0.83132	-0.46063	0.64055
822.000	1.27100	0.83530	-0.46854	0.63458
823.000	1.25915	0.80746	-0.46656	0.64652
824.000	1.27496	0.80746	-0.46854	0.69426
825.000	1.27891	0.86115	-0.45470	0.71614
826.000	1.23544	0.83531	-0.46063	0.68630
827.000	1.26310	0.83928	-0.43691	0.67039
828.000	1.23346	0.83133	-0.45075	0.73205
829.000	1.26310	0.87109	-0.41121	0.68432
830.000	1.24334	0.88104	-0.48435	0.71613
831.000	1.26903	0.89495	-0.45865	0.69824
832.000	1.25717	0.82536	-0.41319	0.71216
833.000	1.19591	0.84924	-0.42505	0.72807
834.000	1.23939	0.83730	-0.44086	0.72807
835.000	1.23346	0.87906	-0.43098	0.75791
836.000	1.27693	0.87507	-0.45075	0.70420
837.000	1.25124	0.89098	-0.42505	0.67238
838.000	1.25915	0.86911	-0.44877	0.71216
839.000	1.21172	0.86117	-0.44086	0.67636
840.000	1.27693	0.85120	-0.43493	0.73404
841.000	1.28286	0.87109	-0.41912	0.70023
842.000	1.23741	0.87309	-0.41912	0.67636
843.000	1.24334	0.89496	-0.45075	0.66044
844.000	1.25124	0.82934	-0.45470	0.70619
845.000	1.21567	0.84924	-0.44284	0.64254
846.000	1.21963	0.83929	-0.42900	0.71216
847.000	1.23148	0.85321	-0.42307	0.66442
848.000	1.22160	0.85918	-0.40133	0.71216
849.000	1.23148	0.90093	-0.40726	0.67039
850.000	1.26112	0.91683	-0.39737	0.70421
851.000	1.21765	0.92679	-0.43098	0.67437
852.000	1.22160	0.91883	-0.38353	0.68830
853.000	1.22358	0.88503	-0.44877	0.69426
854.000	1.23939	0.90690	-0.39935	0.67039
855.000	1.23939	0.92877	-0.45668	0.73006
856.000	1.19394	0.89697	-0.43691	0.65249
857.000	1.22358	0.87707	-0.42307	0.62265
858.000	1.22555	0.95263	-0.48040	0.67436
859.000	1.20777	0.93673	-0.45272	0.63458
860.000	1.18998	0.92481	-0.43889	0.60674
861.000	1.24136	0.97052	-0.45075	0.58088
862.000	1.25322	1.00432	-0.47447	0.55899
863.000	1.24532	0.98046	-0.42900	0.59083
864.000	1.22753	0.96854	-0.44086	0.59281
865.000	1.25520	1.05801	-0.44284	0.61469
866.000	1.26112	1.08584	-0.45668	0.62862
867.000	1.25915	1.07192	-0.47645	0.56098
868.000	1.23741	1.02421	-0.46656	0.58088
869.000	1.29274	1.02817	-0.44679	0.57491
870.000	1.28088	1.01425	-0.48831	0.63458
871.000	1.30855	1.03214	-0.44877	0.61469
872.000	1.25520	0.99438	-0.49028	0.56297
873.000	1.29867	1.00033	-0.51401	0.55700
874.000	1.25520	1.03812	-0.42900	0.56696
875.000	1.29669	1.01027	-0.46854	0.54706
876.000	1.28879	0.94466	-0.47249	0.54905
877.000	1.24136	1.02222	-0.49819	0.59082
878.000	1.24927	0.97649	-0.52389	0.52716
879.000	1.32040	0.99833	-0.43493	0.62464
880.000	1.27298	0.95858	-0.47645	0.58088
881.000	1.33424	0.95458	-0.46854	0.58088
882.000	1.25717	0.93870	-0.44679	0.61270
883.000	1.26903	0.99437	-0.43098	0.57690
884.000	1.23741	0.94070	-0.48040	0.54308
885.000	1.28484	0.95062	-0.43296	0.47943
886.000	1.25520	0.95859	-0.42505	0.50330
887.000	1.28681	0.93869	-0.44284	0.60276
888.000	1.24927	0.98444	-0.41912	0.56894
889.000	1.27100	1.02619	-0.43493	0.54905
890.000	1.29274	0.99635	-0.38946	0.54110
891.000	1.22555	1.03615	-0.41121	0.56497
892.000	1.32040	1.05400	-0.40330	0.55502
893.000	1.28681	1.02817	-0.40528	0.56099
894.000	1.28286	0.98642	-0.40726	0.61470
895.000	1.27891	1.02022	-0.34993	0.59083
896.000	1.28286	0.98045	-0.41714	0.58088
897.000	1.26310	1.07590	-0.40726	0.61470
898.000	1.25124	0.99040	-0.38551	0.63857
899.000	1.24532	1.02620	-0.42307	0.66442
900.000	1.25520	1.01228	-0.42307	0.60276
901.000	1.24532	0.97649	-0.34399	0.59680
902.000	1.26310	0.99239	-0.37365	0.58088
903.000	1.26705	1.00034	-0.36179	0.63658
904.000	1.24136	0.95064	-0.34993	0.67040
905.000	1.20579	0.94270	-0.34202	0.64255
906.000	1.21963	0.94269	-0.35190	0.64653
907.000	1.17418	0.92879	-0.39342	0.64255
908.000	1.22160	0.90491	-0.35190	0.61271
909.000	1.19394	0.91288	-0.35586	0.64255
910.000	1.18603	0.85919	-0.39342	0.60077
911.000	1.22358	0.92281	-0.37760	0.54309
912.000	1.21172	0.84128	-0.36179	0.51126
913.000	1.19591	0.91288	-0.34399	0.46153
914.000	1.18208	0.90691	-0.34202	0.50927
915.000	1.15639	0.90295	-0.36772	0.56497
916.000	1.20975	0.95065	-0.37563	0.55105
917.000	1.18603	0.91089	-0.32620	0.50331
918.000	1.22358	0.90690	-0.38353	0.53513
919.000	1.15639	0.93277	-0.38353	0.50131
920.000	1.17220	0.90891	-0.40133	0.53314
921.000	1.18406	0.94867	-0.35981	0.55502
922.000	1.20184	1.02224	-0.41319	0.55701
923.000	1.21765	0.99241	-0.40133	0.57491
924.000	1.17022	1.00634	-0.38551	0.56497
925.000	1.20777	1.05802	-0.39144	0.60276
926.000	1.17418	1.03020	-0.38156	0.60077
927.000	1.15244	1.02822	-0.40923	0.58884
928.000	1.16034	1.03816	-0.39342	0.64056
929.000	1.13860	1.04413	-0.42702	0.67437
930.000	1.14058	1.03817	-0.37167	0.65249
931.000	1.18603	1.03218	-0.37365	0.66642
932.000	1.18801	1.08985	-0.37760	0.65448
933.000	1.23544	1.10971	-0.39737	0.64851
934.000	1.19591	1.02820	-0.36179	0.58287
935.000	1.18208	1.05803	-0.36772	0.60276
936.000	1.18010	1.07195	-0.36376	0.54309
937.000	1.13860	1.07992	-0.36969	0.56497
938.000	1.17615	1.08389	-0.39144	0.56099
939.000	1.16627	1.04015	-0.40923	0.56696
940.000	1.17220	1.02821	-0.38551	0.55701
941.000	1.18998	1.01031	-0.38551	0.55502
942.000	1.16825	1.05009	-0.34202	0.53314
943.000	1.18208	1.03815	-0.39737	0.48938
944.000	1.18406	1.01827	-0.34597	0.50132
945.000	1.18208	1.01827	-0.34004	0.50728
946.000	1.18603	1.04213	-0.29852	0.47148
947.000	1.15639	1.01828	-0.37563	0.50927
948.000	1.15837	1.02822	-0.36772	0.54707
949.000	1.20975	1.01030	-0.32225	0.50927
950.000	1.14058	0.98846	-0.36179	0.43567
951.000	1.20975	1.02422	-0.34202	0.44960
952.000	1.15244	1.04612	-0.32225	0.48739
953.000	1.19987	1.04212	-0.36179	0.43965
954.000	1.19789	0.98645	-0.33411	0.50530
955.000	1.19591	1.01230	-0.34795	0.48540
956.000	1.18801	1.03815	-0.30841	0.42573
957.000	1.18603	0.97850	-0.35388	0.47148
958.000	1.18406	1.02821	-0.36376	0.45357
959.000	1.15837	1.02623	-0.35190	0.46153
960.000	1.14651	1.03419	-0.35190	0.46750
961.000	1.17220	1.06798	-0.35981	0.43567
962.000	1.10303	1.04812	-0.38749	0.45954
963.000	1.14848	1.05606	-0.39144	0.52121
964.000	1.13268	1.05805	-0.38551	0.50330
965.000	1.16429	1.07395	-0.42702	0.55303
966.000	1.22951	1.05802	-0.36574	0.60873
967.000	1.31448	1.02418	-0.33411	0.65051
968.000	1.27891	1.00829	-0.17595	0.64057
969.000	1.36387	0.96252	-0.08303	0.74202
970.000	1.48835	1.10363	0.12060	0.84744
971.000	1.67404	1.19099	0.27085	0.99858
972.000	1.90513	1.34784	0.48040	1.11788
973.000	2.11048	1.44702	0.67808	1.36838
974.000	2.21512	1.63564	0.90144	1.59691
975.000	2.41447	1.81215	1.06351	1.83928
976.000	2.62362	2.00640	1.24334	1.97625
977.000	2.82482	2.21442	1.52193	2.12895
978.000	3.00426	2.46199	1.71158	2.31937
979.000	3.19941	2.68753	1.83206	2.52961
980.000	3.32750	2.82787	1.97227	2.75955
981.000	3.49495	2.93038	2.04730	2.84868
982.000	3.60524	3.10427	2.13023	2.93975
983.000	3.63872	3.29218	2.20722	3.04864
984.000	3.73519	3.44020	2.22696	3.15365
985.000	3.81393	3.58623	2.27039	3.31803
986.000	3.91823	3.62335	2.27631	3.43687
987.000	3.88871	3.77172	2.24670	3.47259
988.000	3.90642	3.83290	2.36908	3.48616
989.000	3.85919	3.98327	2.22499	3.54988
990.000	3.87691	4.11946	2.24078	3.68052
991.000	3.87887	4.16881	2.26447	3.77350
992.000	3.79818	4.21462	2.22499	3.87058
993.000	3.86313	4.33471	2.20722	4.05264
994.000	3.79621	4.34491	2.22104	4.11194
995.000	3.84345	4.48477	2.24473	4.13759
996.000	3.79424	4.60536	2.24867	4.18306
997.000	3.80212	4.69800	2.25065	4.19887
998.000	3.75291	4.74756	2.27433	4.25218
999.000	3.76275	4.83424	2.32763	4.31330
1000.000	3.71156	4.80890	2.34539	4.36068
1001.000	3.73519	4.84031	2.27433	4.34509
1002.000	3.68597	4.78144	2.34934	4.35474
1003.000	3.64462	4.74222	2.32171	4.36668
1004.000	3.62887	4.71075	2.30000	4.36675
1005.000	3.58949	4.65968	2.31973	4.32716
1006.000	3.57570	4.60846	2.29013	4.32132
1007.000	3.61115	4.51358	2.36513	4.27365
1008.000	3.55601	4.43491	2.32171	4.24611
1009.000	3.55404	4.39347	2.35329	4.16891
1010.000	3.55601	4.31844	2.34342	4.17092
1011.000	3.55601	4.23946	2.37302	4.21432
1012.000	3.60327	4.21554	2.40263	4.14306
1013.000	3.61115	4.25303	2.42828	4.09157
1014.000	3.63872	4.24105	2.45788	4.13102
1015.000	3.65053	4.24297	2.40065	4.20435
1016.000	3.66628	4.31397	2.41052	4.16478
1017.000	3.67416	4.33170	2.40065	4.20040
1018.000	3.66628	4.29028	2.37697	4.25780
1019.000	3.72928	4.37880	2.35921	4.26972
1020.000	3.77653	4.40027	2.36315	4.29738
1021.000	3.75094	4.46749	2.37105	4.23410
1022.000	3.74700	4.55235	2.39868	4.29529
1023.000	3.78834	4.50479	2.37697	4.33884
1024.000	3.74109	4.54449	2.34342	4.26977
1025.000	3.79227	4.53041	2.32565	4.32121
1026.000	3.79424	4.58366	2.37302	4.34083
1027.000	3.80015	4.58560	2.35526	4.33496
1028.000	3.78243	4.55611	2.31776	4.30938
1029.000	3.79818	4.52249	2.32171	4.33111
1030.000	3.76275	4.53649	2.32960	4.34294
1031.000	3.77850	4.56205	2.29407	4.31736
1032.000	3.78834	4.55608	2.33355	4.29549
1033.000	3.80212	4.53431	2.29802	4.30548
1034.000	3.80605	4.49681	2.30986	4.30742
1035.000	3.82574	4.53813	2.27039	4.32138
1036.000	3.79424	4.46727	2.29407	4.32921
1037.000	3.83558	4.54794	2.33947	4.29943
1038.000	3.79621	4.52842	2.30197	4.30547
1039.000	3.78834	4.50676	2.28815	4.30749
1040.000	3.82967	4.54600	2.27631	4.31741
1041.000	3.86116	4.51230	2.26447	4.28186
1042.000	3.80999	4.52638	2.27236	4.29568
1043.000	3.80605	4.60530	2.25854	4.31351
1044.000	3.80605	4.52048	2.27236	4.36881
1045.000	3.83558	4.53019	2.29802	4.35094
1046.000	3.81786	4.52633	2.28223	4.29762
1047.000	3.83164	4.53613	2.30197	4.33512
1048.000	3.81983	4.57958	2.29407	4.37467
1049.000	3.83951	4.54397	2.30000	4.34303
1050.000	3.80802	4.53428	2.30986	4.38450
1051.000	3.80212	4.58165	2.34342	4.31523
1052.000	3.86313	4.54977	2.29407	4.36479
1053.000	3.81589	4.55199	2.22893	4.31359
1054.000	3.85526	4.54389	2.26447	4.28779
1055.000	3.84345	4.54001	2.32368	4.34889
1056.000	3.83361	4.56767	2.29407	4.23631
1057.000	3.83951	4.58342	2.27631	4.32729
1058.000	3.84542	4.56169	2.24867	4.28389
1059.000	3.80015	4.59152	2.31973	4.25402
1060.000	3.82967	4.56967	2.32565	4.26982
1061.000	3.85723	4.59122	2.31381	4.34497
1062.000	3.84935	4.56167	2.30197	4.31931
1063.000	3.85329	4.58927	2.29210	4.25015
1064.000	3.85526	4.66616	2.33947	4.23617
1065.000	3.86116	4.68190	2.35723	4.22426
1066.000	3.84148	4.62483	2.31776	4.28368
1067.000	3.81196	4.65851	2.31184	4.35090
1068.000	3.86313	4.63851	2.29802	4.36083
1069.000	3.86116	4.69965	2.34342	4.29942
1070.000	3.85526	4.67799	2.35723	4.33297
1071.000	3.85723	4.75881	2.32171	4.32913
1072.000	3.85132	4.69970	2.34737	4.32312
1073.000	3.83558	4.72542	2.35131	4.31323
1074.000	3.84542	4.69579	2.37302	4.30723
1075.000	3.86313	4.69964	2.32565	4.26982
1076.000	3.84345	4.70172	2.35526	4.29938
1077.000	3.83951	4.73131	2.32763	4.23225
1078.000	3.82770	4.70378	2.33355	4.28956
1079.000	3.83558	4.67219	2.34144	4.27768
1080.000	3.86707	4.73313	2.30592	4.29953
1081.000	3.81589	4.72159	2.34934	4.34486
1082.000	3.87100	4.77254	2.33947	4.34686
1083.000	3.83754	4.73132	2.31973	4.35483
1084.000	3.82377	4.76689	2.38486	4.37241
1085.000	3.88084	4.76657	2.35723	4.37448
1086.000	3.87887	4.76264	2.38289	4.34870
1087.000	3.83361	4.71557	2.38486	4.41391
1088.000	3.83558	4.76485	2.35526	4.39227
1089.000	3.83164	4.71164	2.37500	4.41592
1090.000	3.86510	4.74891	2.39276	4.41389
1091.000	3.85132	4.79433	2.33947	4.41998
1092.000	3.85526	4.80219	2.38684	4.42576
1093.000	3.85526	4.81599	2.37302	4.44359
1094.000	3.85526	4.82387	2.36908	4.49694
1095.000	3.85132	4.77265	2.38289	4.43170
1096.000	3.87100	4.85137	2.36118	4.47128
1097.000	3.86903	4.84547	2.36118	4.44362
1098.000	3.87100	4.88487	2.37500	4.41197
1099.000	3.87100	4.88684	2.34342	4.43973
1100.000	3.91430	4.87871	2.39078	4.46329
1101.000	3.88084	4.91634	2.35921	4.45746
1102.000	3.94184	4.96130	2.34539	4.44960
1103.000	3.89265	4.92021	2.34144	4.42195
1104.000	3.93594	4.92390	2.32565	4.47337
1105.000	3.95562	4.92576	2.38486	4.45145
1106.000	3.93004	4.93773	2.36908	4.49694
1107.000	3.95758	4.93165	2.35526	4.41203
1108.000	3.97529	4.97292	2.37894	4.44949
1109.000	3.95955	4.92376	2.38289	4.46134
1110.000	3.93004	4.97122	2.32565	4.46349
1111.000	3.94184	4.92978	2.37500	4.50482
1112.000	3.93988	4.92191	2.34539	4.42984
1113.000	3.95562	4.96712	2.33158	4.48323
1114.000	3.97726	4.90790	2.36513	4.41200
1115.000	3.98710	4.94133	2.34539	4.43775
1116.000	3.99890	4.93929	2.33552	4.49507
1117.000	3.94381	4.93568	2.40460	4.46324
1118.000	3.97136	4.94733	2.31776	4.47933
1119.000	4.02251	4.97263	2.37500	4.45346
1120.000	4.00087	4.98458	2.39078	4.46131
1121.000	3.98513	5.01028	2.32960	4.48521
1122.000	3.96545	4.98873	2.32171	4.46351
1123.000	3.96349	4.97299	2.36118	4.48709
1124.000	3.97923	4.96107	2.34539	4.46738
1125.000	3.98316	4.99454	2.33947	4.38837
1126.000	4.01661	4.97661	2.32171	4.41806
1127.000	3.99890	5.01020	2.29802	4.40430
1128.000	4.03628	5.01391	2.30394	4.43985
1129.000	4.01071	5.11449	2.30000	4.51297
1130.000	4.00874	5.21292	2.25854	4.53878
1131.000	3.95562	5.28805	2.18945	4.62985
1132.000	3.89855	5.30415	2.15194	4.74253
1133.000	3.77653	5.44854	2.09864	4.99336
1134.000	3.68597	5.64774	1.96635	5.05690
1135.000	3.57570	5.91376	1.89130	5.16759
1136.000	3.40040	6.12109	1.77873	5.35720
1137.000	3.33144	6.32368	1.64837	5.57630
1138.000	3.20730	6.52060	1.54367	5.73807
1139.000	3.21124	6.76358	1.48242	5.94489
1140.000	3.11269	6.91893	1.34609	6.18124
1141.000	3.03187	7.11710	1.39746	6.27741
1142.000	2.94906	7.22129	1.35004	6.35023
1143.000	2.97272	7.30130	1.32633	6.45047
1144.000	2.96680	7.39514	1.27891	6.43684
1145.000	2.92145	7.50093	1.22753	6.48410
1146.000	2.91159	7.54200	1.15046	6.53533
1147.000	2.84454	7.55806	1.13465	6.57659
1148.000	2.88201	7.56367	1.18010	6.65303
1149.000	2.88201	7.59296	1.19196	6.68439
1150.000	2.93131	7.61996	1.16034	6.70213
1151.000	2.94906	7.64131	1.18208	6.72365
1152.000	2.95892	7.65881	1.20579	6.74125
1153.000	2.94906	7.70961	1.22160	6.74710
1154.000	3.02595	7.63688	1.29076	6.77830
1155.000	3.06341	7.72636	1.24927	6.73918
1156.000	3.02989	7.73441	1.32040	6.69388
1157.000	3.02595	7.66029	1.30460	6.70569
1158.000	3.03778	7.71484	1.36783	6.62507
1159.000	3.08706	7.63645	1.37771	6.59561
1160.000	3.09101	7.58372	1.42117	6.60138
1161.000	3.07721	7.55259	1.42315	6.58959
1162.000	3.07129	7.55653	1.43500	6.58956
1163.000	3.09495	7.56417	1.47847	6.60317
1164.000	3.05947	7.49999	1.46859	6.56984
1165.000	3.04961	7.48248	1.49428	6.57958
1166.000	3.08312	7.46858	1.48637	6.56193
1167.000	3.12649	7.49562	1.46069	6.61892
1168.000	3.08509	7.48615	1.49823	6.53834
1169.000	3.11860	7.51520	1.45081	6.61699
1170.000	3.10481	7.50944	1.45674	6.54239
1171.000	3.07327	7.52919	1.37375	6.56029
1172.000	3.10086	7.56218	1.37178	6.57404
1173.000	3.11663	7.55036	1.39746	6.57396
1174.000	3.11269	7.60309	1.40142	6.61124
1175.000	3.13043	7.60101	1.36190	6.65845
1176.000	3.09889	7.56415	1.36980	6.58582
1177.000	3.15211	7.67305	1.36387	6.61135
1178.000	3.10678	7.62655	1.36190	6.65452
1179.000	3.07524	7.68531	1.30460	6.60954
1180.000	3.10481	7.70461	1.28681	6.62921
1181.000	3.06932	7.66779	1.34807	6.65456
1182.000	3.11269	7.71041	1.33621	6.62908
1183.000	3.09298	7.72420	1.32436	6.58986
1184.000	3.11860	7.64988	1.27693	6.58606
1185.000	3.11860	7.64793	1.32040	6.59969
1186.000	3.12846	7.73370	1.30657	6.57421
1187.000	3.16591	7.72172	1.30460	6.59384
1188.000	3.17774	7.70993	1.33819	6.64870
1189.000	3.13437	7.71025	1.32238	6.59183
1190.000	3.12255	7.69668	1.29669	6.57620
1191.000	3.13634	7.71609	1.26310	6.58217
1192.000	3.12452	7.74153	1.25322	6.60967
1193.000	3.12452	7.69666	1.24136	6.59793
1194.000	3.15605	7.73740	1.25322	6.67051
1195.000	3.16197	7.74125	1.28088	6.63904
1196.000	3.19547	7.72150	1.25717	6.64303
1197.000	3.19153	7.65911	1.19789	6.60785
1198.000	3.13832	7.75898	1.25520	6.66069
1199.000	3.15803	7.71788	1.22951	6.63328
1200.000	3.18759	7.71571	1.22951	6.67253
1201.000	3.15211	7.68866	1.24136	6.65091
1202.000	3.13240	7.73952	1.25915	6.64302
1203.000	3.15803	7.70617	1.27298	6.62140
1204.000	3.23095	7.73294	1.21765	6.67452
1205.000	3.16394	7.74319	1.21567	6.66275
1206.000	3.21321	7.72137	1.20184	6.69418
1207.000	3.22109	7.77202	1.23346	6.65486
1208.000	3.20336	7.74485	1.23544	6.63719
1209.000	3.18168	7.74111	1.26112	6.60377
1210.000	3.19744	7.76829	1.21963	6.65489
1211.000	3.17971	7.74307	1.24136	6.70978
1212.000	3.21321	7.75257	1.23741	6.64111
1213.000	3.26248	7.78730	1.22555	6.68431
1214.000	3.18562	7.79178	1.22358	6.66077
1215.000	3.22504	7.74078	1.22753	6.65291
1216.000	3.25657	7.74835	1.22951	6.67645
1217.000	3.22898	7.80120	1.23148	6.70784
1218.000	3.17576	7.76651	1.25124	6.61753
1219.000	3.20139	7.76631	1.19987	6.70792
1220.000	3.21518	7.79546	1.24729	6.64698
1221.000	3.18562	7.75668	1.19987	6.65887
1222.000	3.18365	7.77425	1.21765	6.61565
1223.000	3.22701	7.79147	1.19987	6.64905
1224.000	3.25263	7.79712	1.21370	6.62940
1225.000	3.24671	7.84591	1.17813	6.66873
1226.000	3.25460	7.84585	1.18998	6.69225
1227.000	3.25657	7.80879	1.22160	6.67255
1228.000	3.23883	7.78748	1.20579	6.62157
1229.000	3.25854	7.82827	1.22555	6.67254
1230.000	3.24080	7.81671	1.18998	6.64712
1231.000	3.24474	7.84787	1.17813	6.62948
1232.000	3.23883	7.81088	1.23741	6.69605
1233.000	3.26248	7.80680	1.23939	6.68428
1234.000	3.25657	7.85753	1.17418	6.63930
1235.000	3.26248	7.79315	1.20382	6.67063
1236.000	3.28415	7.85341	1.18010	6.68050
1237.000	3.21912	7.80323	1.24927	6.65874
1238.000	3.28612	7.80077	1.20975	6.70986
1239.000	3.28810	7.84948	1.21370	6.65295
1240.000	3.25657	7.90235	1.20975	6.63529
1241.000	3.33538	7.85496	1.19789	6.62747
1242.000	3.29007	7.84167	1.17615	6.69032
1243.000	3.33933	7.87247	1.23346	6.69999
1244.000	3.31765	7.88433	1.15837	6.72763
1245.000	3.29401	7.85529	1.18603	6.74719
1246.000	3.26839	7.89446	1.19394	6.68831
1247.000	3.30780	7.82204	1.16825	6.73350
1248.000	3.29598	7.85722	1.20975	6.70593
1249.000	3.31174	7.87074	1.18406	6.69618
1250.000	3.29992	7.90396	1.18208	6.67264
1251.000	3.31174	7.92530	1.18406	6.74719
1252.000	3.34524	7.95426	1.19591	6.71970
1253.000	3.32159	7.88235	1.15441	6.69625
1254.000	3.33538	7.93096	1.18208	6.72169
1255.000	3.29204	7.94689	1.19789	6.71773
1256.000	3.30386	7.90003	1.18801	6.77464
1257.000	3.30583	7.90391	1.14453	6.75317
1258.000	3.28415	7.91578	1.20579	6.86088
1259.000	3.33144	7.95242	1.18208	6.71385
1260.000	3.33144	7.87058	1.18801	6.72756
1261.000	3.24671	7.87124	1.15639	6.77864
1262.000	3.33538	7.92901	1.14256	6.76102
1263.000	3.30386	7.93316	1.20382	6.72556
1264.000	3.26445	7.91788	1.17418	6.77860
1265.000	3.32356	7.89403	1.20777	6.79420
1266.000	3.32159	7.90379	1.14453	6.73355
1267.000	3.28810	7.91574	1.18010	6.73543
1268.000	3.31371	7.92139	1.17615	6.73152
1269.000	3.31174	7.90971	1.18208	6.79427
1270.000	3.31174	7.95258	1.16232	6.67661
1271.000	3.35312	7.94640	1.19789	6.74323
1272.000	3.33144	7.91540	1.15046	6.73746
1273.000	3.35312	7.95225	1.18406	6.73346
1274.000	3.31371	7.90580	1.17418	6.76094
1275.000	3.32750	7.92323	1.09908	6.69638
1276.000	3.34524	7.89971	1.16429	6.77470
1277.000	3.28021	7.90411	1.14453	6.74336
1278.000	3.31962	7.93303	1.17615	6.71190
1279.000	3.33933	7.92508	1.12082	6.72380
1280.000	3.37282	7.91897	1.17615	6.76682
1281.000	3.33933	7.94846	1.12477	6.72771
1282.000	3.38070	8.02214	1.19196	6.77463
1283.000	3.34130	7.92701	1.14256	6.73159
1284.000	3.38661	7.98898	1.16825	6.69034
1285.000	3.39055	7.98506	1.13663	6.71199
1286.000	3.37873	7.94620	1.14848	6.73158
1287.000	3.39449	8.01424	1.10698	6.75325
1288.000	3.33736	7.95042	1.12675	6.68847
1289.000	3.43586	7.94963	1.11687	6.76500
1290.000	3.35115	7.96395	1.11291	6.71989
1291.000	3.39252	7.93634	1.11291	6.77089
1292.000	3.37873	7.97931	1.04769	6.73769
1293.000	3.36100	8.03203	1.13663	6.69041
1294.000	3.36888	8.00081	1.09117	6.73367
1295.000	3.42010	7.98676	1.08129	6.67876
1296.000	3.40631	7.97519	1.10303	6.72580
1297.000	3.39843	7.99473	1.14848	6.70412
1298.000	3.39252	8.01425	1.13663	6.65117
1299.000	3.41419	8.04328	1.08327	6.73565
1300.000	3.38661	8.04935	1.13070	6.71985
1301.000	3.47920	8.00185	1.07932	6.76312
1302.000	3.42798	8.02759	1.15244	6.71392
1303.000	3.39055	8.02790	1.08524	6.72976
1304.000	3.46541	8.01949	1.03781	6.69063
1305.000	3.39646	8.05900	1.08327	6.75135
1306.000	3.42207	8.00038	1.09513	6.70620
1307.000	3.40434	8.03752	1.06548	6.74354
1308.000	3.41419	8.07832	1.08920	6.65912
1309.000	3.44768	8.07999	1.08524	6.70033
1310.000	3.41419	8.05302	1.09908	6.67872
1311.000	3.38858	8.10774	1.15244	6.72569
1312.000	3.39843	8.04731	1.05165	6.71414
1313.000	3.42207	8.05684	1.10303	6.67086
1314.000	3.38661	8.04546	1.12082	6.61784
1315.000	3.45753	8.08964	1.14848	6.68842
1316.000	3.42601	8.07628	1.09908	6.67872
1317.000	3.44177	8.07226	1.11291	6.73362
1318.000	3.39055	8.09215	1.10106	6.65517
1319.000	3.42601	8.12494	1.11489	6.66691
1320.000	3.43783	8.10538	1.12279	6.70025
1321.000	3.40828	8.05112	1.07141	6.58262
1322.000	3.47132	8.03891	1.06548	6.63366
1323.000	3.43389	8.04117	1.07339	6.52764
1324.000	3.44965	8.05856	1.03188	6.68083
1325.000	3.45753	8.13246	1.05165	6.61014
1326.000	3.43192	8.06066	1.10106	6.70226
1327.000	3.43586	8.07425	1.08722	6.57277
1328.000	3.43783	8.15014	1.06351	6.63759
1329.000	3.44177	8.03526	1.06153	6.61404
1330.000	3.48117	8.07582	1.03386	6.70241
1331.000	3.48314	8.11084	1.08920	6.56295
1332.000	3.48708	8.13221	1.04374	6.57679
1333.000	3.43783	8.08981	1.08129	6.63951
1334.000	3.43586	8.09761	1.04177	6.67100
1335.000	3.44374	8.11117	1.04572	6.61211
1336.000	3.50480	8.06783	1.04374	6.62193
1337.000	3.42601	8.09964	1.04177	6.51396
1338.000	3.43783	8.06061	1.07339	6.61402
1339.000	3.47329	8.07588	1.02991	6.65140
1340.000	3.54222	8.06946	1.05362	6.62583
1341.000	3.47329	8.09924	1.02793	6.61215
1342.000	3.44177	8.11313	1.04967	6.65724
1343.000	3.48117	8.03299	1.03979	6.60231
1344.000	3.51268	8.08528	1.02991	6.57289
1345.000	3.48904	8.07380	1.02793	6.65729
1346.000	3.46147	8.07014	1.00224	6.58865
1347.000	3.48314	8.05049	1.04374	6.51789
1348.000	3.50086	8.03672	1.06746	6.61992
1349.000	3.42010	8.07633	1.06746	6.63169
1350.000	3.42601	8.04124	1.02200	6.51597
1351.000	3.43586	8.01000	1.03979	6.66315
1352.000	3.48511	8.05826	1.03386	6.59251
1353.000	3.48117	8.04856	1.02991	6.58859
1354.000	3.48117	8.03688	0.99631	6.59847
1355.000	3.47132	8.00776	1.06943	6.57477
1356.000	3.52647	7.99366	1.01805	6.62591
1357.000	3.50874	8.02691	0.99236	6.62203
1358.000	3.51071	8.06389	1.00619	6.55919
1359.000	3.48314	8.06023	1.01607	6.60825
1360.000	3.50677	8.02693	1.03386	6.63569
1361.000	3.47723	8.06028	1.01805	6.59647
1362.000	3.51268	8.07944	1.01607	6.53561
1363.000	3.48117	8.07971	1.02398	6.52971
1364.000	3.48117	8.04662	1.00421	6.54349
1365.000	3.53631	8.05393	0.97654	6.53177
1366.000	3.52253	8.02096	1.01607	6.57684
1367.000	3.47723	8.05444	0.99829	6.58669
1368.000	3.50677	8.08728	1.01607	6.59451
1369.000	3.50283	8.11261	0.99631	6.56707
1370.000	3.53238	8.10068	1.01805	6.61610
1371.000	3.52844	8.06568	1.01014	6.52777
1372.000	3.53238	8.11041	0.98840	6.57101
1373.000	3.52647	8.06959	0.99631	6.56707
1374.000	3.49692	8.10488	1.02200	6.51990
1375.000	3.60918	8.11947	1.00619	6.49833
1376.000	3.47723	8.10894	1.02200	6.48259
1377.000	3.53435	8.11040	1.01410	6.57096
1378.000	3.54222	8.13563	1.03386	6.49631
1379.000	3.52450	8.16108	1.02793	6.50221
1380.000	3.52253	8.20195	0.97062	6.55926
1381.000	3.52647	8.10268	1.03584	6.58269
1382.000	3.55601	8.14913	1.01410	6.55329
1383.000	3.60918	8.11947	1.02595	6.57682
1384.000	3.54222	8.12590	1.01014	6.58274
1385.000	3.57373	8.13146	1.02398	6.60627
1386.000	3.55798	8.12965	0.99236	6.61026
1387.000	3.48314	8.13808	0.97852	6.64169
1388.000	3.47723	8.09142	0.99631	6.43354
1389.000	3.41813	8.03741	1.01805	6.24487
1390.000	3.42798	7.85422	0.95085	6.07786
1391.000	3.41222	7.53645	0.97852	5.90468
1392.000	3.34130	7.29092	0.91527	5.67245
1393.000	3.34721	7.09734	0.91923	5.34134
1394.000	3.33933	6.76860	0.85598	5.03760
1395.000	3.29795	6.41805	0.89353	4.85590
1396.000	3.26445	6.18868	0.90342	4.58126
1397.000	3.30780	5.86039	0.89156	4.18774
1398.000	3.22701	5.46550	0.94492	4.07093
1399.000	3.21912	5.23911	1.02595	3.77584
1400.000	3.29992	5.06926	0.94492	3.46091
1401.000	3.24671	4.76195	0.94690	3.35387
1402.000	3.30386	4.57425	0.89946	3.17547
1403.000	3.32159	4.51101	0.87574	3.03467
1404.000	3.30189	4.35513	0.87574	2.88787
1405.000	3.31568	4.17138	0.89156	2.90968
1406.000	3.39843	4.12164	0.87574	2.80651
1407.000	3.47132	4.07984	0.89749	2.56037
1408.000	3.36100	3.82137	0.88760	2.63582
1409.000	3.45556	3.77750	0.89551	2.51670
1410.000	3.46147	3.66674	0.81249	2.25463
1411.000	3.46147	3.55400	0.81645	2.05599
1412.000	3.38858	3.36233	0.78877	1.94672
1413.000	3.40434	3.23758	0.76110	1.93879
1414.000	3.38858	3.00795	0.76110	1.69634
1415.000	3.34524	2.98035	0.78482	1.71223
1416.000	3.35903	2.86146	0.77098	1.61882
1417.000	3.34721	2.81989	0.70378	1.54530
1418.000	3.36691	2.75247	0.71959	1.41210
1419.000	3.35509	2.68116	0.75122	1.33257
1420.000	3.34327	2.58805	0.71761	1.34451
1421.000	3.35903	2.56224	0.72750	1.29281
1422.000	3.32159	2.55837	0.79273	1.29478
1423.000	3.38267	2.57407	0.73540	1.28287
1424.000	3.41813	2.53037	0.76308	1.29678
1425.000	3.44374	2.66308	0.78087	1.27092
1426.000	3.46738	2.68085	0.84214	1.28085
1427.000	3.39843	2.74643	0.80063	1.35840
1428.000	3.45359	2.79382	0.81645	1.41406
1429.000	3.41616	2.82959	0.83226	1.40610
1430.000	3.44965	2.94240	0.79668	1.49756
1431.000	3.39843	2.82965	0.82040	1.49159
1432.000	3.42995	2.93850	0.84017	1.47766
1433.000	3.38267	2.85941	0.83028	1.55917
1434.000	3.32750	2.81598	0.81249	1.53930
1435.000	3.33538	2.78030	0.75715	1.60690
1436.000	3.35312	2.73071	0.87772	1.59890
1437.000	3.33144	2.71293	0.78482	1.56714
1438.000	3.29795	2.63772	0.79470	1.54328
1439.000	3.30583	2.60797	0.85796	1.57705
1440.000	3.32356	2.56035	0.85203	1.49953
1441.000	3.33341	2.51474	0.86388	1.52338
1442.000	3.28612	2.56045	0.84214	1.49953
1443.000	3.31765	2.52469	0.89551	1.49951
1444.000	3.37676	2.54039	0.83819	1.51146
1445.000	3.28218	2.50297	0.85005	1.53332
1446.000	3.30386	2.52472	0.83424	1.46972
1447.000	3.33736	2.53455	0.87574	1.49355
1448.000	3.34524	2.54444	0.87574	1.45181
1449.000	3.33341	2.53059	0.87179	1.47964
1450.000	3.32750	2.54448	0.89353	1.41204
1451.000	3.30583	2.52075	0.86586	1.42000
1452.000	3.30386	2.51679	0.82831	1.46177
1453.000	3.40237	2.57402	0.82831	1.47568
1454.000	3.37085	2.58798	0.85203	1.46772
1455.000	3.34524	2.62768	0.84610	1.52140
1456.000	3.35312	2.61577	0.78482	1.44787
1457.000	3.38858	2.62162	0.77296	1.52739
1458.000	3.41419	2.65920	0.84412	1.41007
1459.000	3.35115	2.68117	0.79273	1.39617
1460.000	3.39449	2.69294	0.78482	1.44985
1461.000	3.41616	2.67703	0.77098	1.46377
1462.000	3.37676	2.69696	0.81645	1.43593
1463.000	3.38661	2.67513	0.69587	1.44789
1464.000	3.38858	2.67909	0.71959	1.43397
1465.000	3.40040	2.72859	0.83028	1.42996
1466.000	3.41025	2.73253	0.77494	1.34250
1467.000	3.43192	2.69680	0.67215	1.40019
1468.000	3.32553	2.69710	0.74529	1.32660
1469.000	3.40237	2.70679	0.68203	1.33855
1470.000	3.35509	2.70891	0.74331	1.43595
1471.000	3.40237	2.74840	0.70773	1.38825
1472.000	3.35312	2.72278	0.70971	1.38626
1473.000	3.40040	2.72265	0.74133	1.39818
1474.000	3.40434	2.75236	0.72750	1.34450
1475.000	3.36691	2.72076	0.67017	1.36241
1476.000	3.39055	2.73259	0.70180	1.42801
1477.000	3.43783	2.78793	0.69587	1.35048
1478.000	3.37479	2.75244	0.71761	1.37035
1479.000	3.39055	2.71872	0.72354	1.35643
1480.000	3.46935	2.76604	0.69785	1.43597
1481.000	3.36100	2.75645	0.70180	1.34650
1482.000	3.40237	2.73850	0.71366	1.38626
1483.000	3.39449	2.72663	0.69192	1.39422
1484.000	3.44571	2.78592	0.74726	1.26099
1485.000	3.42601	2.75230	0.74133	1.38625
1486.000	3.38464	2.74053	0.66820	1.37832
1487.000	3.44965	2.75223	0.68203	1.38229
1488.000	3.41025	2.70479	0.70971	1.36439
1489.000	3.41813	2.73053	0.72552	1.40812
1490.000	3.36494	2.73068	0.67215	1.46778
1491.000	3.41616	2.70279	0.73145	1.38824
1492.000	3.38464	2.71477	0.75912	1.38227
1493.000	3.39843	2.76030	0.69982	1.36241
1494.000	3.42207	2.72655	0.74924	1.34649
1495.000	3.41616	2.72062	0.74529	1.39818
1496.000	3.49889	2.75803	0.72750	1.40415
1497.000	3.42207	2.73051	0.74133	1.38426
1498.000	3.40631	2.70480	0.73145	1.40613
1499.000	3.36297	2.75446	0.78482	1.44985
1500.000	3.37282	2.74651	0.72354	1.47572
1501.000	3.37873	2.71280	0.71761	1.34650
1502.000	3.37085	2.69895	0.71761	1.35644
1503.000	3.45950	2.74626	0.77691	1.32858
1504.000	3.42601	2.71862	0.73936	1.36836
1505.000	3.42601	2.72654	0.66029	1.34850
1506.000	3.47723	2.80366	0.74133	1.36239
1507.000	3.43980	2.81962	0.73738	1.32462
1508.000	3.42995	2.75031	0.76505	1.31666
1509.000	3.41813	2.72854	0.76703	1.35841
1510.000	3.36888	2.71878	0.77296	1.37232
1511.000	3.39646	2.76625	0.77691	1.36238
1512.000	3.36691	2.69302	0.75319	1.35444
1513.000	3.38661	2.74845	0.79273	1.34250
1514.000	3.40828	2.72461	0.78284	1.34051
1515.000	3.37873	2.73064	0.69982	1.28288
1516.000	3.38464	2.68306	0.76703	1.34449
1517.000	3.38070	2.75243	0.76901	1.38624
1518.000	3.41419	2.73846	0.75319	1.38625
1519.000	3.43192	2.74832	0.75319	1.37233
1520.000	3.37676	2.74451	0.71564	1.34252
1521.000	3.44965	2.70666	0.77494	1.42600
1522.000	3.39646	2.72662	0.72947	1.30474
1523.000	3.40434	2.70679	0.76308	1.36239
1524.000	3.39252	2.76032	0.71168	1.37831
1525.000	3.40040	2.72859	0.74924	1.36239
1526.000	3.40828	2.74046	0.69982	1.36638
1527.000	3.41222	2.78602	0.71168	1.35644
1528.000	3.40631	2.70084	0.72552	1.41807
1529.000	3.32356	2.69512	0.72354	1.42204
1530.000	3.39252	2.65332	0.74331	1.39619
1531.000	3.42995	2.69086	0.72947	1.42800
1532.000	3.42207	2.63540	0.72157	1.46180
1533.000	3.44571	2.66506	0.70575	1.50554
1534.000	3.45359	2.66306	0.70378	1.41211
1535.000	3.41419	2.68496	0.67808	1.43001
1536.000	3.40040	2.70284	0.67215	1.48766
1537.000	3.40631	2.65328	0.67610	1.53935
1538.000	3.44374	2.67299	0.74924	1.48565
1539.000	3.41813	2.65127	0.64250	1.45984
1540.000	3.37282	2.64544	0.70378	1.52343
1541.000	3.35903	2.59395	0.60494	1.49563
1542.000	3.36494	2.62961	0.65238	1.51351
1543.000	3.32947	2.60196	0.65831	1.54134
1544.000	3.36888	2.57807	0.71366	1.46976
1545.000	3.42798	2.69681	0.63855	1.50159
1546.000	3.42995	2.67501	0.68006	1.56121
1547.000	3.41025	2.61958	0.71564	1.52144
1548.000	3.40631	2.57599	0.62471	1.53936
1549.000	3.41419	2.62948	0.65831	1.60097
1550.000	3.46344	2.65114	0.65436	1.53140
1551.000	3.41025	2.61562	0.65831	1.56122
1552.000	3.42010	2.59577	0.64645	1.54731
1553.000	3.38661	2.63946	0.64645	1.51152
1554.000	3.47132	2.68084	0.67808	1.50555
1555.000	3.45753	2.68286	0.70575	1.54729
1556.000	3.42995	2.65123	0.69587	1.56319
1557.000	3.51859	2.68269	0.67215	1.49561
1558.000	3.40828	2.64337	0.60692	1.52545
1559.000	3.48511	2.63126	0.65436	1.57513
1560.000	3.42010	2.65720	0.67610	1.46778
1561.000	3.46344	2.67888	0.64843	1.49562
1562.000	3.42995	2.71068	0.64448	1.51550
1563.000	3.43192	2.71860	0.65238	1.51947
1564.000	3.44965	2.71260	0.65831	1.50953
1565.000	3.44571	2.73243	0.64645	1.55923
1566.000	3.43389	2.70472	0.59901	1.52347
1567.000	3.45556	2.70268	0.66820	1.47574
1568.000	3.44177	2.77999	0.67215	1.49363
1569.000	3.41813	2.74241	0.65238	1.51749
1570.000	3.45162	2.75421	0.65041	1.49164
1571.000	3.47723	2.76007	0.66622	1.50953
1572.000	3.48117	2.76997	0.66029	1.47574
1573.000	3.46147	2.74427	0.66424	1.51550
1574.000	3.49101	2.75805	0.65238	1.51749
1575.000	3.38267	2.75837	0.69587	1.47374
1576.000	3.44374	2.72649	0.67413	1.51748
1577.000	3.46344	2.78191	0.68994	1.55524
1578.000	3.47526	2.79574	0.65634	1.56122
1579.000	3.45753	2.64323	0.66227	1.52544
1580.000	3.47329	2.71055	0.71564	1.52144
1581.000	3.43192	2.68293	0.67413	1.52742
1582.000	3.42995	2.73644	0.66227	1.50556
1583.000	3.49298	2.69465	0.66227	1.47773
1584.000	3.43980	2.73839	0.72750	1.51150
1585.000	3.47329	2.80565	0.67808	1.48170
1586.000	3.45162	2.65712	0.71366	1.44590
1587.000	3.43980	2.72452	0.72552	1.43198
1588.000	3.46738	2.73633	0.66029	1.51550
1589.000	3.44571	2.81168	0.67413	1.41013
1590.000	3.43783	2.71066	0.65436	1.43200
1591.000	3.45753	2.72843	0.69785	1.43199
1592.000	3.42207	2.70872	0.68599	1.45187
1593.000	3.43980	2.76018	0.67215	1.40814
1594.000	3.46147	2.76012	0.67413	1.44989
1595.000	3.44768	2.74827	0.71959	1.49162
1596.000	3.49298	2.79965	0.69389	1.45187
1597.000	3.44965	2.78195	0.69192	1.45982
1598.000	3.46147	2.73635	0.70773	1.47572
1599.000	3.52844	2.76191	0.65436	1.49761
1600.000	3.51071	2.70847	0.68006	1.46778
1601.000	3.49298	2.70455	0.69587	1.39422
1602.000	3.46541	2.78586	0.65634	1.44393
1603.000	3.52647	2.76984	0.66622	1.41609
1604.000	3.47920	2.75809	0.69587	1.41807
1605.000	3.42995	2.81172	0.67215	1.43399
1606.000	3.46147	2.80767	0.69587	1.40018
1607.000	3.46935	2.85123	0.69785	1.40813
1608.000	3.48314	2.82345	0.71959	1.41011
1609.000	3.47329	2.81754	0.69587	1.45585
1610.000	3.47329	2.83339	0.67413	1.41410
1611.000	3.47329	2.75811	0.72354	1.48168
1612.000	3.47526	2.80168	0.65436	1.43797
1613.000	3.42404	2.79193	0.67808	1.46977
1614.000	3.49101	2.79173	0.66424	1.44989
1615.000	3.43192	2.75624	0.65436	1.37634
1616.000	3.49101	2.78183	0.68994	1.43000
1617.000	3.46344	2.76210	0.64843	1.45586
1618.000	3.49298	2.79173	0.67610	1.44194
1619.000	3.48511	2.77590	0.65831	1.43399
1620.000	3.46344	2.80766	0.65831	1.44791
1621.000	3.39252	2.76032	0.62273	1.40219
1622.000	3.45753	2.74230	0.70180	1.48765
1623.000	3.47526	2.79178	0.66820	1.42405
1624.000	3.44177	2.76414	0.69192	1.48766
1625.000	3.40434	2.73651	0.68796	1.50952
1626.000	3.44177	2.76414	0.60889	1.48967
1627.000	3.47920	2.76403	0.61680	1.49364
1628.000	3.41222	2.74045	0.66424	1.53537
1629.000	3.48511	2.80364	0.58320	1.49564
1630.000	3.47329	2.78980	0.64250	1.47177
1631.000	3.43783	2.71066	0.64645	1.47972
1632.000	3.46147	2.75616	0.62668	1.46780
1633.000	3.43783	2.74434	0.66029	1.47574
1634.000	3.42995	2.78399	0.66029	1.43995
1635.000	3.37676	2.72866	0.63657	1.46382
1636.000	3.44965	2.73638	0.54959	1.49366
1637.000	3.35509	2.68116	0.64645	1.46381
1638.000	3.39646	2.78408	0.60889	1.49762
1639.000	3.45162	2.79383	0.60296	1.49563
1640.000	3.45556	2.78986	0.66029	1.44791
1641.000	3.46541	2.72247	0.55750	1.46781
1642.000	3.38070	2.71676	0.57924	1.45787
1643.000	3.46935	2.74821	0.60692	1.43997
1644.000	3.46935	2.77397	0.61285	1.48569
1645.000	3.45359	2.75420	0.64448	1.52942
1646.000	3.44177	2.79584	0.60889	1.52545
1647.000	3.45162	2.82553	0.65831	1.45785
1648.000	3.43192	2.76417	0.63459	1.48569
1649.000	3.43192	2.83549	0.59506	1.51154
1650.000	3.46147	2.80965	0.55552	1.50360
1651.000	3.43783	2.91075	0.62471	1.51352
1652.000	3.42207	2.82958	0.59110	1.54136
1653.000	3.48904	2.80362	0.55947	1.52745
1654.000	3.47920	2.81752	0.60692	1.51154
1655.000	3.44374	2.78989	0.65041	1.48369
1656.000	3.40237	2.79199	0.60494	1.57117
1657.000	3.46935	2.77595	0.61285	1.52346
1658.000	3.45753	2.80372	0.65041	1.55725
1659.000	3.43980	2.88103	0.55552	1.55330
1660.000	3.42995	2.76814	0.57331	1.61293
1661.000	3.44177	2.87112	0.55552	1.62287
1662.000	3.42601	2.81173	0.60889	1.55527
1663.000	3.46541	2.85718	0.62471	1.54334
1664.000	3.42995	2.78201	0.61285	1.59105
1665.000	3.47526	2.84527	0.61087	1.55527
1666.000	3.45162	2.77798	0.54168	1.51553
1667.000	3.45556	2.87306	0.60692	1.54334
1668.000	3.43192	2.81568	0.59506	1.54335
1669.000	3.44177	2.82159	0.59901	1.48172
1670.000	3.40237	2.85143	0.68796	1.50952
1671.000	3.41222	2.86328	0.58320	1.55528
1672.000	3.46147	2.80569	0.62866	1.57912
1673.000	3.44177	2.84537	0.60296	1.53738
1674.000	3.47132	2.79575	0.63262	1.52942
1675.000	3.46541	2.82549	0.60296	1.52545
1676.000	3.52450	2.83917	0.62075	1.56322
1677.000	3.45359	2.82948	0.63459	1.55924
1678.000	3.45162	2.77006	0.58715	1.53341
1679.000	3.43980	2.79783	0.59308	1.59106
1680.000	3.45753	2.73239	0.61285	1.55527
1681.000	3.43783	2.79981	0.59308	1.53341
1682.000	3.50874	2.82734	0.58122	1.56919
1683.000	3.45556	2.83344	0.61878	1.54135
1684.000	3.48314	2.76798	0.63657	1.57912
1685.000	3.45950	2.83343	0.59901	1.51551
1686.000	3.41222	2.85734	0.56540	1.43600
1687.000	3.49495	2.85709	0.60889	1.55527
1688.000	3.45359	2.85722	0.59703	1.55925
1689.000	3.41616	2.82365	0.63064	1.52942
1690.000	3.43389	2.87312	0.62668	1.50358
1691.000	3.44374	2.79583	0.59308	1.51154
1692.000	3.47329	2.80565	0.57924	1.49962
1693.000	3.46344	2.75417	0.61680	1.51750
1694.000	3.46935	2.83340	0.55750	1.55528
1695.000	3.43980	2.75622	0.63064	1.53141
1696.000	3.45359	2.82156	0.59703	1.48967
1697.000	3.47132	2.77594	0.60296	1.54931
1698.000	3.49495	2.78974	0.57331	1.47377
1699.000	3.47920	2.80563	0.59901	1.59503
1700.000	3.42995	2.80974	0.65041	1.50954
1701.000	3.44571	2.81762	0.57133	1.51552
1702.000	3.35509	2.71881	0.62668	1.50755
1703.000	3.43783	2.76613	0.65634	1.48369
1704.000	3.54025	2.84309	0.54564	1.49764
1705.000	3.42601	2.74239	0.58913	1.52744
1706.000	3.48708	2.80759	0.58517	1.49763
1707.000	3.50283	2.84716	0.57924	1.53142
1708.000	3.51662	2.86693	0.62273	1.49563
1709.000	3.46147	2.82748	0.60889	1.48569
1710.000	3.54222	2.89656	0.62075	1.50954
1711.000	3.49101	2.80164	0.67413	1.52941
1712.000	3.46738	2.82746	0.58913	1.49564
1713.000	3.50677	2.77187	0.60494	1.52148
1714.000	3.50874	2.81743	0.58913	1.54335
1715.000	3.50086	2.76397	0.60296	1.46581
1716.000	3.51465	2.84316	0.61087	1.51949
1717.000	3.50480	2.88083	0.59110	1.53341
1718.000	3.45359	2.80571	0.62668	1.48768
1719.000	3.50480	2.81348	0.60692	1.47178
1720.000	3.55798	2.87274	0.61087	1.51750
1721.000	3.49692	2.85312	0.59110	1.48371
1722.000	3.52844	2.85105	0.65436	1.48966
1723.000	3.49692	2.84916	0.61878	1.45189
1724.000	3.44965	2.77006	0.63855	1.46779
1725.000	3.51268	2.89269	0.63064	1.51749
1726.000	3.48708	2.80759	0.59308	1.38232
1727.000	3.48511	2.85910	0.66424	1.43200
1728.000	3.51662	2.85504	0.66227	1.40218
1729.000	3.55010	2.85692	0.62866	1.40219
1730.000	3.52253	2.85106	0.67215	1.44989
1731.000	3.43980	2.83349	0.60494	1.38828
1732.000	3.45162	2.79779	0.66227	1.38230
1733.000	3.51465	2.90259	0.64052	1.44394
1734.000	3.47132	2.87301	0.69785	1.37434
1735.000	3.47920	2.83535	0.65634	1.40019
1736.000	3.54616	2.84703	0.65831	1.43598
1737.000	3.50283	2.78972	0.67413	1.41609
1738.000	3.48511	2.83137	0.60494	1.43599
1739.000	3.56192	2.84896	0.66029	1.39820
1740.000	3.48904	2.82145	0.59506	1.44792
1741.000	3.50283	2.84320	0.64250	1.37833
1742.000	3.48117	2.78186	0.68203	1.41808
1743.000	3.54813	2.80939	0.67413	1.38627
1744.000	3.47920	2.75809	0.68203	1.41211
1745.000	3.46147	2.75616	0.66820	1.42206
1746.000	3.50086	2.81151	0.62273	1.43201
1747.000	3.49889	2.76397	0.61680	1.39026
1748.000	3.55995	2.77172	0.65831	1.45188
1749.000	3.52056	2.77580	0.66622	1.41411
1750.000	3.45556	2.68881	0.65041	1.40218
1751.000	3.50086	2.68868	0.63459	1.46779
1752.000	3.50480	2.82735	0.67413	1.46381
1753.000	3.48904	2.76004	0.66029	1.42206
1754.000	3.55995	2.83114	0.64448	1.44791
1755.000	3.50677	2.82140	0.71366	1.43397
1756.000	3.51071	2.79365	0.62866	1.43201
1757.000	3.51465	2.76789	0.66029	1.41411
1758.000	3.51465	2.83326	0.56540	1.39624
1759.000	3.48117	2.73035	0.65634	1.42803
1760.000	3.50480	2.76198	0.64843	1.47773
1761.000	3.53041	2.75398	0.68599	1.42802
1762.000	3.52844	2.76983	0.60889	1.48768
1763.000	3.51465	2.78770	0.64645	1.46381
1764.000	3.49495	2.76002	0.57133	1.43004
1765.000	3.54616	2.78761	0.63855	1.44394
1766.000	3.52253	2.78371	0.64250	1.40218
1767.000	3.54419	2.81931	0.61482	1.49762
1768.000	3.58555	2.86671	0.61482	1.51750
1769.000	3.53631	2.79952	0.59703	1.43003
1770.000	3.54616	2.80345	0.60889	1.55129
1771.000	3.49889	2.76001	0.58320	1.50359
1772.000	3.51071	2.78177	0.58715	1.46582
1773.000	3.50086	2.80755	0.58913	1.49166
1774.000	3.54025	2.80941	0.48831	1.55928
1775.000	3.49889	2.78180	0.57924	1.48570
1776.000	3.48117	2.74223	0.56145	1.58112
1777.000	3.48117	2.82940	0.57727	1.55925
1778.000	3.51071	2.72432	0.63657	1.52743
1779.000	3.47329	2.75811	0.54761	1.43402
1780.000	3.52253	2.72032	0.58913	1.47973
1781.000	3.50874	2.76791	0.61285	1.56720
1782.000	3.42207	2.78401	0.62866	1.53141
1783.000	3.46344	2.80370	0.59506	1.53341
1784.000	3.50677	2.71046	0.61482	1.48171
1785.000	3.54616	2.73808	0.61680	1.57117
1786.000	3.49692	2.75011	0.65238	1.52146
1787.000	3.55798	2.80144	0.60494	1.54136
1788.000	3.55798	2.80540	0.56343	1.52149
1789.000	3.55995	2.78954	0.64250	1.54930
1790.000	3.54419	2.76186	0.64250	1.49761
1791.000	3.46738	2.79180	0.62273	1.46183
1792.000	3.53435	2.77179	0.62075	1.50557
1793.000	3.55798	2.78757	0.62668	1.48768
1794.000	3.47329	2.79971	0.67017	1.49760
1795.000	3.55207	2.82522	0.63657	1.47972
1796.000	3.51662	2.83127	0.63459	1.45388
1797.000	3.56192	2.77567	0.63459	1.48569
1798.000	3.55601	2.83512	0.66622	1.44592
1799.000	3.52056	2.85899	0.66424	1.48568
1800.000	3.53828	2.86884	0.64645	1.47375
1801.000	3.52056	2.86692	0.67808	1.40814
1802.000	3.58161	2.91228	0.64645	1.49363
1803.000	3.52647	2.87482	0.66622	1.45784
1804.000	3.55798	2.88265	0.67413	1.42404
1805.000	3.52056	2.89068	0.66029	1.47176
1806.000	3.58358	2.87068	0.67413	1.50356
1807.000	3.52056	2.75400	0.69785	1.44193
1808.000	3.55404	2.88464	0.64645	1.49960
1809.000	3.50283	2.80556	0.68401	1.44392
1810.000	3.54025	2.83318	0.65831	1.54333
1811.000	3.52844	2.83124	0.70180	1.44392
1812.000	3.51859	2.79561	0.67610	1.51152
1813.000	3.57373	2.82714	0.69587	1.46579
1814.000	3.53828	2.86884	0.72947	1.48963
1815.000	3.53828	2.84507	0.68599	1.54531
1816.000	3.60524	2.78545	0.69785	1.50157
1817.000	3.52844	2.85699	0.66424	1.52742
1818.000	3.52253	2.77183	0.66820	1.49959
1819.000	3.52844	2.83718	0.66029	1.51748
1820.000	3.56979	2.79150	0.70575	1.54132
1821.000	3.53631	2.84112	0.62075	1.55527
1822.000	3.52253	2.82333	0.62471	1.50954
1823.000	3.54025	2.77574	0.60889	1.48370
1824.000	3.55010	2.82127	0.60494	1.52943
1825.000	3.52844	2.78568	0.64052	1.54135
1826.000	3.50874	2.77979	0.65831	1.43797
1827.000	3.57570	2.81327	0.69389	1.42802
1828.000	3.57964	2.70628	0.70378	1.34650
1829.000	3.55798	2.66474	0.75715	1.34847
1830.000	3.59933	2.67849	0.71564	1.34252
1831.000	3.58752	2.63692	0.71168	1.21726
1832.000	3.62493	2.56350	0.72947	1.24111
1833.000	3.59146	2.46649	0.77296	1.32858
1834.000	3.56192	2.56962	0.73343	1.22123
1835.000	3.56389	2.55376	0.73936	1.32859
1836.000	3.55010	2.58749	0.72947	1.32263
1837.000	3.49298	2.54999	0.74133	1.34052
1838.000	3.51465	2.64307	0.70180	1.41807
1839.000	3.45753	2.70267	0.66424	1.41411
1840.000	3.45950	2.73635	0.68006	1.45188
1841.000	3.46344	2.72842	0.64250	1.41213
1842.000	3.49889	2.75803	0.66029	1.53538
1843.000	3.47526	2.74819	0.68401	1.49959
1844.000	3.52056	2.80155	0.66820	1.55326
1845.000	3.51071	2.79762	0.67413	1.56718
1846.000	3.57570	2.77563	0.68203	1.53934
1847.000	3.54222	2.79752	0.67808	1.50953
1848.000	3.60130	2.75772	0.63064	1.46581
1849.000	3.53631	2.73018	0.66227	1.51947
1850.000	3.46541	2.74822	0.69192	1.39422
1851.000	3.49101	2.74815	0.68599	1.49362
1852.000	3.50874	2.77583	0.67808	1.43597
1853.000	3.55207	2.71231	0.65041	1.42405
1854.000	3.48904	2.68475	0.66820	1.40615
1855.000	3.52647	2.73616	0.69389	1.39422
1856.000	3.59540	2.70624	0.64052	1.45785
1857.000	3.52253	2.75400	0.65041	1.36838
1858.000	3.57373	2.75385	0.72552	1.43198
1859.000	3.52647	2.62917	0.68796	1.41410
1860.000	3.51662	2.71835	0.68006	1.39422
1861.000	3.54222	2.67271	0.67017	1.39621
1862.000	3.54025	2.77772	0.66029	1.43399
1863.000	3.54222	2.65290	0.69192	1.44790
1864.000	3.55995	2.72417	0.68994	1.32861
1865.000	3.53238	2.70048	0.71959	1.36638
1866.000	3.52056	2.73617	0.71761	1.41210
1867.000	3.53238	2.73218	0.68994	1.36440
1868.000	3.55601	2.68654	0.70971	1.35445
1869.000	3.51662	2.68467	0.66622	1.38428
1870.000	3.54025	2.74998	0.70180	1.29481
1871.000	3.55010	2.66080	0.64843	1.43399
1872.000	3.52844	2.66284	0.71959	1.36240
1873.000	3.55010	2.71826	0.68796	1.43199
1874.000	3.51859	2.64900	0.64645	1.42405
1875.000	3.52450	2.73022	0.64645	1.43996
1876.000	3.59146	2.74983	0.65831	1.38031
1877.000	3.51662	2.65495	0.61878	1.42008
1878.000	3.54222	2.75592	0.62273	1.41213
1879.000	3.51662	2.71637	0.67610	1.33855
1880.000	3.53435	2.65688	0.65831	1.43995
1881.000	3.53435	2.69849	0.64250	1.42405
1882.000	3.51465	2.66090	0.63262	1.41014
1883.000	3.55798	2.64889	0.67808	1.37832
1884.000	3.46541	2.65708	0.61482	1.39424
1885.000	3.50480	2.68471	0.62273	1.45189
1886.000	3.54813	2.66279	0.60889	1.46184
1887.000	3.55798	2.70437	0.60692	1.42208
1888.000	3.55404	2.68853	0.66424	1.44790
1889.000	3.54616	2.60533	0.61878	1.41014
1890.000	3.56586	2.74198	0.66424	1.52543
1891.000	3.55995	2.69445	0.65436	1.37832
1892.000	3.55207	2.74004	0.68796	1.43398
1893.000	3.50677	2.69461	0.64448	1.34652
1894.000	3.59933	2.74386	0.60889	1.46382
1895.000	3.54616	2.68261	0.63657	1.40417
1896.000	3.50480	2.65895	0.63855	1.40219
1897.000	3.55601	2.73013	0.56540	1.39028
1898.000	3.55010	2.68061	0.62866	1.46183
1899.000	3.57767	2.73997	0.62471	1.48171
1900.000	3.53828	2.70640	0.64645	1.49363
1901.000	3.52647	2.74210	0.61285	1.53738
1902.000	3.52450	2.65295	0.66424	1.44989
1903.000	3.48904	2.65107	0.69389	1.40416
1904.000	3.49101	2.71249	0.60099	1.48569
1905.000	3.55995	2.61322	0.69982	1.40416
1906.000	3.52450	2.63115	0.61285	1.49762
1907.000	3.50283	2.66490	0.65634	1.46182
1908.000	3.53041	2.70445	0.59901	1.49166
1909.000	3.49692	2.66492	0.63855	1.44990
1910.000	3.55601	2.64890	0.63064	1.42605
1911.000	3.50086	2.64707	0.62075	1.44990
1912.000	3.51465	2.64703	0.66424	1.44790
1913.000	3.47329	2.65706	0.60296	1.51750
1914.000	3.46738	2.63924	0.60889	1.43400
1915.000	3.52253	2.60540	0.59110	1.50756
1916.000	3.48708	2.60550	0.62273	1.50159
1917.000	3.51071	2.54202	0.64250	1.52544
1918.000	3.57570	2.56562	0.60692	1.56720
1919.000	3.51071	2.60939	0.62471	1.51551
1920.000	3.53041	2.58952	0.63657	1.62086
1921.000	3.52450	2.55189	0.62471	1.51153
1922.000	3.52056	2.62126	0.63657	1.56719
1923.000	3.48314	2.59164	0.65634	1.57315
1924.000	3.48314	2.55002	0.62471	1.54930
1925.000	3.43980	2.53032	0.67808	1.58904
1926.000	3.48708	2.59163	0.63459	1.55725
1927.000	3.49692	2.61538	0.64843	1.60495
1928.000	3.49495	2.60944	0.60099	1.56919
1929.000	3.57767	2.63695	0.63657	1.67850
1930.000	3.50874	2.55986	0.62668	1.62086
1931.000	3.54616	2.56570	0.58320	1.57714
1932.000	3.48511	2.60154	0.65831	1.56321
1933.000	3.52253	2.55189	0.56343	1.60498
1934.000	3.50874	2.63120	0.62075	1.59105
1935.000	3.48708	2.53217	0.58715	1.54335
1936.000	3.46935	2.58771	0.59901	1.58509
1937.000	3.56979	2.57951	0.61285	1.58707
1938.000	3.57570	2.58742	0.65436	1.61091
1939.000	3.52253	2.57171	0.63855	1.59104
1940.000	3.52253	2.59747	0.63855	1.60297
1941.000	3.50086	2.58168	0.58517	1.56720
1942.000	3.55010	2.57560	0.62471	1.60098
1943.000	3.54025	2.60139	0.57727	1.58708
1944.000	3.61903	2.65466	0.61680	1.54732
1945.000	3.57767	2.59732	0.61087	1.57117
1946.000	3.55010	2.63901	0.63855	1.53339
1947.000	3.52450	2.57171	0.58715	1.60298
1948.000	3.47920	2.49850	0.62075	1.61291
1949.000	3.54222	2.64894	0.65634	1.60694
1950.000	3.50480	2.54005	0.60889	1.54135
1951.000	3.53828	2.57563	0.62471	1.57316
1952.000	3.51268	2.61930	0.66029	1.61688
1953.000	3.55404	2.59738	0.60494	1.62683
1954.000	3.53435	2.60140	0.63855	1.61688
1955.000	3.58752	2.62107	0.63855	1.60098
1956.000	3.47526	2.56788	0.59506	1.50558
1957.000	3.55207	2.64098	0.64843	1.65067
1958.000	3.50283	2.63320	0.60889	1.60496
1959.000	3.51859	2.61730	0.62273	1.73217
1960.000	3.52844	2.60538	0.65831	1.62880
1961.000	3.54025	2.57364	0.60099	1.61689
1962.000	3.56192	2.58745	0.56738	1.62485
1963.000	3.57373	2.61912	0.60889	1.69640
1964.000	3.57176	2.63102	0.61087	1.65863
1965.000	3.53828	2.54987	0.58715	1.69044
1966.000	3.55207	2.59144	0.62273	1.68447
1967.000	3.48904	2.55198	0.64052	1.70036
1968.000	3.51859	2.69259	0.59308	1.70833
1969.000	3.53828	2.56969	0.56343	1.68051
1970.000	3.51071	2.61732	0.59703	1.70634
1971.000	3.51268	2.59750	0.57924	1.68051
1972.000	3.54813	2.54191	0.61087	1.69043
1973.000	3.56783	2.60923	0.56540	1.65070
1974.000	3.49495	2.58764	0.61285	1.59900
1975.000	3.57767	2.60921	0.68796	1.71227
1976.000	3.56979	2.63895	0.63064	1.68447
1977.000	3.55995	2.64096	0.62075	1.60894
1978.000	3.53238	2.68859	0.58122	1.58510
1979.000	3.51268	2.57966	0.59901	1.66659
1980.000	3.55601	2.66673	0.63262	1.66459
1981.000	3.52056	2.64305	0.59110	1.62286
1982.000	3.55798	2.68653	0.57133	1.67057
1983.000	3.54419	2.62912	0.57331	1.68051
1984.000	3.51662	2.63712	0.58122	1.68647
1985.000	3.61115	2.68638	0.56738	1.64473
1986.000	3.51859	2.62919	0.56343	1.55528
1987.000	3.52844	2.60142	0.61680	1.63478
1988.000	3.55207	2.66278	0.59703	1.65466
1989.000	3.55798	2.65880	0.63262	1.57514
1990.000	3.56389	2.62312	0.63657	1.61887
1991.000	3.58161	2.68647	0.61087	1.62683
1992.000	3.50677	2.64309	0.60889	1.62285
1993.000	3.56192	2.69247	0.64645	1.66657
1994.000	3.55601	2.68060	0.58517	1.66659
1995.000	3.49298	2.68276	0.61680	1.64074
1996.000	3.49101	2.66691	0.59901	1.65267
1997.000	3.54222	2.67469	0.61878	1.63875
1998.000	3.51859	2.71241	0.62471	1.75006
1999.000	3.52450	2.69654	0.65436	1.74408
2000.000	3.51465	2.69062	0.61878	1.70832
2001.000	3.56783	2.69245	0.65436	1.69241
2002.000	3.55798	2.69842	0.67215	1.68048
2003.000	3.54025	2.73215	0.59506	1.68845
2004.000	3.58949	2.67852	0.66820	1.69042
2005.000	3.53238	2.67274	0.64448	1.72222
2006.000	3.57176	2.72612	0.70575	1.67053
2007.000	3.56783	2.70830	0.63657	1.69639
2008.000	3.53435	2.73217	0.65634	1.71030
2009.000	3.58752	2.77758	0.67808	1.72818
2010.000	3.57964	2.73600	0.64052	1.73018
2011.000	3.53238	2.71237	0.68203	1.72619
2012.000	3.55601	2.71031	0.70180	1.73214
2013.000	3.56192	2.75586	0.62471	1.72223
2014.000	3.52647	2.73418	0.67017	1.67451
2015.000	3.56783	2.76179	0.68599	1.72420
2016.000	3.55010	2.74203	0.67017	1.71427
2017.000	3.56783	2.72811	0.66029	1.69638
2018.000	3.60327	2.72008	0.67413	1.74408
2019.000	3.56783	2.69839	0.69785	1.66258
2020.000	3.61115	2.72996	0.64448	1.66458
2021.000	3.55404	2.74598	0.72750	1.72617
2022.000	3.55207	2.66872	0.67808	1.70035
2023.000	3.54222	2.64695	0.66424	1.72619
2024.000	3.58949	2.69040	0.64448	1.67254
2025.000	3.60130	2.68046	0.73540	1.64666
2026.000	3.56979	2.73801	0.69389	1.70034
2027.000	3.57964	2.69043	0.66029	1.68247
2028.000	3.55995	2.65483	0.67215	1.56917
2029.000	3.59736	2.73397	0.74133	1.61088
2030.000	3.60918	2.76364	0.66029	1.67054
2031.000	3.62296	2.76360	0.66227	1.59501
2032.000	3.60524	2.72800	0.64645	1.63079
2033.000	3.60721	2.68639	0.65041	1.66260
2034.000	3.55010	2.72420	0.64843	1.61290
2035.000	3.60130	2.71612	0.64448	1.65465
2036.000	3.63084	2.74773	0.66622	1.61091
2037.000	3.61903	2.73588	0.63262	1.64869
2038.000	3.60327	2.72602	0.65634	1.63278
2039.000	3.62296	2.70021	0.64250	1.64471
2040.000	3.59343	2.75181	0.71761	1.69636
2041.000	3.56783	2.72811	0.68796	1.56518
2042.000	3.64659	2.79720	0.65238	1.61688
2043.000	3.60524	2.72007	0.62075	1.61291
2044.000	3.64265	2.71600	0.62866	1.68049
2045.000	3.58949	2.76370	0.64448	1.59899
2046.000	3.62296	2.71012	0.59901	1.65665
2047.000	3.64069	2.71997	0.62866	1.63080
2048.000	3.63084	2.74971	0.63855	1.63278
2049.000	3.61509	2.68637	0.62075	1.62683
2050.000	3.56389	2.69444	0.62668	1.64273
2051.000	3.59146	2.71615	0.67610	1.60296
2052.000	3.54222	2.72422	0.63855	1.69241
2053.000	3.64069	2.76751	0.64843	1.69241
2054.000	3.57964	2.68251	0.63657	1.63676
2055.000	3.59933	2.71613	0.66227	1.69439
2056.000	3.55798	2.73804	0.65238	1.57513
2057.000	3.61706	2.71013	0.67610	1.62482
2058.000	3.54616	2.71233	0.67610	1.60693
2059.000	3.63084	2.69821	0.64645	1.64272
2060.000	3.56783	2.72811	0.66227	1.69837
2061.000	3.58752	2.65079	0.64052	1.72024
2062.000	3.63872	2.70413	0.67215	1.70035
2063.000	3.52844	2.70445	0.66029	1.72818
2064.000	3.56979	2.69443	0.64250	1.67651
2065.000	3.55010	2.72222	0.63262	1.73813
2066.000	3.52253	2.72428	0.67808	1.72619
2067.000	3.55010	2.67467	0.72157	1.72617
2068.000	3.63872	2.63875	0.64052	1.75403
2069.000	3.56192	2.68256	0.65238	1.74210
2070.000	3.53631	2.70047	0.62471	1.64869
2071.000	3.59933	2.72009	0.66227	1.75998
2072.000	3.54419	2.69450	0.69587	1.65264
2073.000	3.55798	2.63898	0.65041	1.74011
2074.000	3.65447	2.71200	0.64645	1.73216
2075.000	3.57570	2.68450	0.65436	1.71825
2076.000	3.57373	2.75385	0.60099	1.72423
2077.000	3.55995	2.70832	0.61680	1.73416
2078.000	3.50677	2.66489	0.60692	1.79577
2079.000	3.55995	2.65879	0.64052	1.69639
2080.000	3.55207	2.68457	0.65436	1.71825
2081.000	3.55798	2.69248	0.62668	1.63676
2082.000	3.53631	2.69650	0.57727	1.70635
2083.000	3.61312	2.64279	0.58913	1.70634
2084.000	3.56586	2.62509	0.60296	1.79776
2085.000	3.54616	2.69251	0.51598	1.75208
2086.000	3.58161	2.72213	0.62471	1.70236
2087.000	3.56979	2.65678	0.61285	1.73217
2088.000	3.55010	2.59938	0.55947	1.69443
2089.000	3.50086	2.64509	0.57133	1.73815
2090.000	3.60130	2.69037	0.57133	1.70635
2091.000	3.53828	2.72225	0.58517	1.74411
2092.000	3.59146	2.62700	0.58517	1.67653
2093.000	3.59933	2.68245	0.57331	1.71827
2094.000	3.60327	2.71414	0.53378	1.77592
2095.000	3.60327	2.69829	0.59308	1.78584
2096.000	3.59146	2.64285	0.54168	1.74014
2097.000	3.58555	2.65475	0.56540	1.67852
2098.000	3.52844	2.68068	0.57727	1.71628
2099.000	3.58161	2.67656	0.58122	1.69641
2100.000	3.61312	2.63090	0.54168	1.76399
2101.000	3.61706	2.70023	0.62075	1.71428
2102.000	3.60130	2.65669	0.57529	1.72026
2103.000	3.49298	2.67682	0.59901	1.72621
2104.000	3.53631	2.60338	0.65041	1.76992
2105.000	3.55404	2.70240	0.58320	1.74609
2106.000	3.57767	2.73204	0.65831	1.80370
2107.000	3.68203	2.73371	0.75122	1.80168
2108.000	3.65644	2.87243	0.81052	1.77980
2109.000	3.78243	2.85222	0.93899	1.92877
2110.000	3.93791	3.09319	1.16627	2.27028
2111.000	4.25655	3.48151	1.31645	2.49848
2112.000	4.42166	3.72178	1.46859	2.45861
2113.000	4.61421	3.92808	1.64046	2.76799
2114.000	4.92834	4.33051	1.82811	3.09892
2115.000	5.07941	4.59148	2.03941	3.37401
2116.000	5.29902	4.85353	2.22893	3.63304
2117.000	5.51848	5.11513	2.45394	3.83631
2118.000	5.75147	5.53696	2.58417	4.13062
2119.000	5.95494	5.72112	2.78341	4.47771
2120.000	6.02925	5.90833	2.92342	4.56799
2121.000	6.25596	6.25975	3.04961	4.80230
2122.000	6.44538	6.38441	3.25460	5.10102
2123.000	6.55858	6.57030	3.28810	5.12449
2124.000	6.73022	6.86423	3.40040	5.28148
2125.000	6.78871	7.05417	3.48904	5.48962
2126.000	6.81405	7.14522	3.56389	5.60524
2127.000	6.93097	7.38057	3.59146	5.70535
2128.000	6.94071	7.58621	3.50677	5.85722
2129.000	6.84913	7.83012	3.42798	6.08753
2130.000	6.90954	7.89890	3.40434	6.18584
2131.000	6.74582	8.05077	3.41813	6.24856
2132.000	6.69512	8.22586	3.35115	6.31374
2133.000	6.64832	8.28857	3.31962	6.39830
2134.000	6.56833	8.44078	3.31174	6.54542
2135.000	6.61711	8.50763	3.34721	6.67844
2136.000	6.56833	8.55484	3.37085	6.73117
2137.000	6.54102	8.55337	3.36100	6.78608
2138.000	6.50589	8.59841	3.39252	6.88571
2139.000	6.50199	8.65258	3.42404	6.81893
2140.000	6.56833	8.60508	3.41222	6.89144
2141.000	6.53711	8.55537	3.45359	6.87744
2142.000	6.53126	8.58059	3.44965	6.83245
2143.000	6.53906	8.49541	3.52647	6.75554
2144.000	6.55272	8.44684	3.53828	6.81419
2145.000	6.53126	8.46654	3.52450	6.67330
2146.000	6.55272	8.33659	3.56389	6.72198
2147.000	6.65027	8.29047	3.59736	6.73348
2148.000	6.61711	8.35293	3.61115	6.69617
2149.000	6.64441	8.27508	3.66825	6.74862
2150.000	6.70682	8.36303	3.63084	6.77631
2151.000	6.73217	8.39547	3.59540	6.74329
2152.000	6.72827	8.35106	3.64462	6.78991
2153.000	6.74192	8.45137	3.60721	6.81173
2154.000	6.69122	8.50443	3.67613	6.83274
2155.000	6.72632	8.52315	3.57373	6.91179
2156.000	6.74777	8.55176	3.57767	6.91959
2157.000	6.66587	8.58023	3.57373	6.88440
2158.000	6.72632	8.58498	3.51859	6.94155
2159.000	6.67757	8.65149	3.56586	6.97446
2160.000	6.74192	8.68898	3.48708	6.94374
2161.000	6.66197	8.65177	3.53435	6.96492
2162.000	6.69707	8.60287	3.58752	6.98995
2163.000	6.60930	8.64302	3.49298	7.00435
2164.000	6.71657	8.65854	3.42601	6.95201
2165.000	6.67952	8.64180	3.46935	6.93409
2166.000	6.71852	8.65850	3.48708	6.90460
2167.000	6.77896	8.62268	3.43192	6.98132
2168.000	6.71852	8.63533	3.44571	6.95383
2169.000	6.66587	8.61114	3.51662	6.91417
2170.000	6.67172	8.64580	3.46935	6.92039
2171.000	6.71852	8.64305	3.42601	6.97354
2172.000	6.69512	8.62029	3.44965	7.00467
2173.000	6.68732	8.66677	3.41222	6.97168
2174.000	6.70877	8.58528	3.38661	6.96795
2175.000	6.66782	8.60144	3.48708	6.95744
2176.000	6.67367	8.66508	3.43192	7.00088
2177.000	6.68927	8.62811	3.44768	6.99294
2178.000	6.70682	8.64712	3.40631	6.93650
2179.000	6.66587	8.62466	3.42995	6.95198
2180.000	6.73412	8.58484	3.45753	6.99092
2181.000	6.67952	8.62828	3.37873	7.01496
2182.000	6.66002	8.61896	3.50677	6.98273
2183.000	6.62101	8.59066	3.45950	6.98699
2184.000	6.65807	8.54172	3.43783	6.97932
2185.000	6.68147	8.57416	3.37676	7.02084
2186.000	6.69512	8.54301	3.47329	6.97319
2187.000	6.64246	8.60961	3.47132	6.98299
2188.000	6.59760	8.58333	3.41616	6.99513
2189.000	6.62881	8.54802	3.47132	6.95364
2190.000	6.62686	8.58090	3.50283	6.99841
2191.000	6.66587	8.51453	3.49692	6.97889
2192.000	6.67952	8.50463	3.51859	7.03546
2193.000	6.69317	8.58941	3.47920	6.96141
2194.000	6.66587	8.55318	3.46935	7.01039
2195.000	6.67562	8.50276	3.47329	7.00058
2196.000	6.63466	8.49960	3.48904	6.99264
2197.000	6.71852	8.51556	3.43980	6.97735
2198.000	6.69317	8.55464	3.49298	7.05716
2199.000	6.65807	8.50113	3.49101	6.97111
2200.000	6.68147	8.55484	3.50480	6.93578
2201.000	6.72827	8.55790	3.47920	6.95945
2202.000	6.68927	8.57982	3.46738	6.98497
2203.000	6.64246	8.55938	3.53435	6.96296
2204.000	6.68927	8.61266	3.48708	6.94766
2205.000	6.68732	8.58952	3.48314	6.90268
2206.000	6.65222	8.56694	3.47526	6.90860
2207.000	6.66587	8.63432	3.52844	6.92191
2208.000	6.67172	8.55501	3.47132	6.92625
2209.000	6.65027	8.60175	3.46935	6.90669
2210.000	6.61711	8.57334	3.54616	6.91200
2211.000	6.65807	8.55524	3.47329	6.89688
2212.000	6.63661	8.53629	3.50480	6.81248
2213.000	6.67172	8.54148	3.45359	6.91072
2214.000	6.70682	8.62008	3.55404	6.97259
2215.000	6.69707	8.57969	3.57570	6.88830
2216.000	6.71657	8.60446	3.46147	6.81279
2217.000	6.72437	8.54637	3.53435	6.91600
2218.000	6.66782	8.60724	3.47329	6.83032
2219.000	6.68537	8.58182	3.54222	6.80437
2220.000	6.67757	8.59355	3.51465	6.84764
2221.000	6.68927	8.57016	3.47526	6.81073
2222.000	6.72437	8.59274	3.52056	6.86326
2223.000	6.68537	8.63011	3.49889	6.88690
2224.000	6.69707	8.55844	3.49889	6.92017
2225.000	6.72632	8.65644	3.45556	6.88722
2226.000	6.67757	8.63798	3.51662	6.84763
2227.000	6.67367	8.61873	3.49692	6.86930
2228.000	6.71462	8.61222	3.49298	6.91043
2229.000	6.66197	8.64790	3.46935	6.85384
2230.000	6.65222	8.64035	3.45950	6.88523
2231.000	6.66977	8.61493	3.42995	6.83455
2232.000	6.68732	8.57406	3.42995	6.80714
2233.000	6.68732	8.60690	3.42207	6.85418
2234.000	6.67757	8.56650	3.47723	6.84987
2235.000	6.66977	8.62845	3.43980	6.84818
2236.000	6.66977	8.60914	3.39055	6.87594
2237.000	6.62686	8.57897	3.44768	6.89119
2238.000	6.68732	8.61463	3.49889	6.86929
2239.000	6.71852	8.62181	3.40828	6.84449
2240.000	6.67367	8.63225	3.45556	6.97723
2241.000	6.68342	8.60890	3.50480	6.85554
2242.000	6.66977	8.62266	3.43389	6.91477
2243.000	6.61711	8.65061	3.43783	6.94997
2244.000	6.69317	8.64543	3.46344	6.87542
2245.000	6.68537	8.60887	3.45556	6.88917
2246.000	6.67757	8.64570	3.44965	6.90683
2247.000	6.69902	8.61442	3.46147	6.89109
2248.000	6.74777	8.67923	3.45753	6.93809
2249.000	6.69122	8.63194	3.48708	6.90656
2250.000	6.69122	8.65705	3.45950	6.93416
2251.000	6.66587	8.64204	3.38661	6.92881
2252.000	6.66002	8.62669	3.45162	6.90095
2253.000	6.72632	8.64099	3.50283	6.95341
2254.000	6.65612	8.64607	3.43783	6.93823
2255.000	6.69122	8.63581	3.40631	6.93063
2256.000	6.67757	8.66308	3.42995	6.98329
2257.000	6.63856	8.62899	3.38267	6.97776
2258.000	6.66782	8.59951	3.38464	6.98949
2259.000	6.67562	8.61869	3.42995	6.94807
2260.000	6.68147	8.61087	3.42601	6.91483
2261.000	6.65027	8.64617	3.46738	6.96737
2262.000	6.66002	8.64021	3.37873	6.96605
2263.000	6.66197	8.63052	3.47329	6.92819
2264.000	6.67757	8.59162	3.44177	6.95777
2265.000	6.67367	8.71142	3.47526	6.94774
2266.000	6.67952	8.61090	3.42207	6.92269
2267.000	6.72632	8.63519	3.45950	6.91655
2268.000	6.69122	8.58365	3.44768	6.95381
2269.000	6.70487	8.62398	3.44177	6.91667
2270.000	6.68732	8.56247	3.41616	6.89141
2271.000	6.66197	8.63825	3.43389	6.94217
2272.000	6.66392	8.57833	3.46935	6.94583
2273.000	6.67757	8.63798	3.37676	7.00911
2274.000	6.67562	8.60517	3.46541	6.98694
2275.000	6.69512	8.62994	3.43389	6.91086
2276.000	6.72242	8.60243	3.43586	6.94803
2277.000	6.71462	8.61029	3.46738	6.97715
2278.000	6.67172	8.60331	3.37676	6.94454
2279.000	6.68147	8.58575	3.45162	6.94400
2280.000	6.65807	8.56684	3.42995	6.95785
2281.000	6.72047	8.56769	3.42798	6.94808
2282.000	6.73217	8.58294	3.45950	6.95764
2283.000	6.70877	8.56789	3.46738	6.97715
2284.000	6.69707	8.55457	3.44374	6.93427
2285.000	6.70292	8.62401	3.47920	6.94184
2286.000	6.66197	8.56097	3.43389	6.98717
2287.000	6.69512	8.61836	3.46147	6.89696
2288.000	6.65417	8.56111	3.41419	6.97362
2289.000	6.66002	8.62283	3.46935	6.88712
2290.000	6.68537	8.58375	3.48511	6.94963
2291.000	6.76922	8.62092	3.43980	6.99496
2292.000	6.73997	8.62723	3.43192	6.98914
2293.000	6.65612	8.58619	3.42995	7.00872
2294.000	6.71267	8.59101	3.45556	6.98115
2295.000	6.77117	8.59192	3.48708	6.93787
2296.000	6.76727	8.65185	3.41419	6.97753
2297.000	6.68147	8.56643	3.46147	6.93806
2298.000	6.74387	8.61364	3.44965	6.94988
2299.000	6.75362	8.59995	3.49495	6.92020
2300.000	6.71072	8.55047	3.46344	6.96544
2301.000	6.70292	8.66650	3.45162	6.91660
2302.000	6.61125	8.67389	3.36494	6.89960
2303.000	6.59955	8.63546	3.37479	6.89562
2304.000	6.52150	8.69668	3.24080	6.90242
2305.000	6.38095	8.74541	3.11860	6.91497
2306.000	6.13677	8.77842	2.98849	6.99606
2307.000	5.93539	8.78550	2.73015	7.03090
2308.000	5.77105	8.91751	2.53089	7.14749
2309.000	5.48518	8.90830	2.41841	7.00324
2310.000	5.32450	8.91643	2.15194	7.12983
2311.000	5.11668	9.00440	2.01769	7.28894
2312.000	4.84983	9.00994	1.87551	7.34823
2313.000	4.71633	9.02520	1.75503	7.38392
2314.000	4.65742	9.10330	1.64441	7.44105
2315.000	4.56117	9.11611	1.59108	7.44124
2316.000	4.49830	9.17875	1.54564	7.44727
2317.000	4.41184	9.19141	1.47452	7.53939
2318.000	4.37843	9.23433	1.50415	7.53929
2319.000	4.38432	9.24972	1.41525	7.52199
2320.000	4.44721	9.26634	1.43500	7.58838
2321.000	4.45704	9.20632	1.35597	7.57495
2322.000	4.45900	9.18697	1.40932	7.59824
2323.000	4.46490	9.17530	1.32040	7.56529
2324.000	4.47865	9.18479	1.27693	7.50091
2325.000	4.48651	9.16536	1.35992	7.51826
2326.000	4.49437	9.16140	1.30657	7.50278
2327.000	4.40987	9.17404	1.28484	7.46961
2328.000	4.41380	9.09471	1.25717	7.42666
2329.000	4.35484	9.12443	1.32238	7.45776
2330.000	4.40398	9.14317	1.27298	7.42466
2331.000	4.37056	9.18418	1.29472	7.47740
2332.000	4.40201	9.23791	1.27496	7.47159
2333.000	4.37843	9.25946	1.28484	7.47938
2334.000	4.45900	9.30097	1.31250	7.45193
2335.000	4.41577	9.19523	1.29867	7.42850
2336.000	4.46293	9.21398	1.24334	7.49123
2337.000	4.44328	9.26446	1.28879	7.40115
2338.000	4.40791	9.14893	1.28484	7.45787
2339.000	4.43149	9.18150	1.31250	7.53209
2340.000	4.41184	9.17401	1.30064	7.47934
2341.000	4.41184	9.17401	1.27298	7.43444
2342.000	4.47276	9.17133	1.20579	7.41507
2343.000	4.40005	9.15675	1.25915	7.43057
2344.000	4.36663	9.16489	1.17022	7.51880
2345.000	4.44525	9.16394	1.30262	7.52234
2346.000	4.43739	9.19690	1.19591	7.51482
2347.000	4.37843	9.16088	1.21963	7.51280
2348.000	4.36074	9.18816	1.17022	7.55399
2349.000	4.36860	9.18807	1.22555	7.47955
2350.000	4.37056	9.21317	1.20975	7.47568
2351.000	4.38432	9.22847	1.19394	7.49137
2352.000	4.35877	9.15532	1.17220	7.55203
2353.000	4.40201	9.16253	1.19987	7.53241
2354.000	4.31946	9.18479	1.20382	7.46592
2355.000	4.32535	9.15185	1.20975	7.51870
2356.000	4.31553	9.17323	1.21370	7.50695
2357.000	4.39218	9.17425	1.19196	7.49528
2358.000	4.33911	9.15749	1.21963	7.53235
2359.000	4.31946	9.21185	1.18603	7.55590
2360.000	4.31946	9.13065	1.20777	7.47764
2361.000	4.39218	9.19165	1.18208	7.48358
2362.000	4.36663	9.20355	1.17615	7.47186
2363.000	4.43542	9.19305	1.22358	7.53430
2364.000	4.39218	9.19358	1.22555	7.52061
2365.000	4.40594	9.21081	1.19394	7.51483
2366.000	4.43149	9.22402	1.25124	7.50685
2367.000	4.42953	9.21439	1.18801	7.50898
2368.000	4.38432	9.29609	1.22951	7.51864
2369.000	4.41577	9.23001	1.20975	7.55779
2370.000	4.41773	9.17781	1.22555	7.50692
2371.000	4.41577	9.25320	1.18801	7.50311
2372.000	4.42166	9.22221	1.25520	7.49511
2373.000	4.42559	9.16611	1.22358	7.47564
2374.000	4.40791	9.22625	1.18603	7.52462
2375.000	4.44918	9.18709	1.23939	7.52448
2376.000	4.42363	9.18353	1.20184	7.51285
2377.000	4.45114	9.18126	1.26310	7.52246
2378.000	4.40201	9.16833	1.26705	7.53222
2379.000	4.43149	9.15831	1.19591	7.52460
2380.000	4.44328	9.14656	1.21172	7.48350
2381.000	4.36467	9.18811	1.19789	7.47767
2382.000	4.39808	9.20511	1.14848	7.51495
2383.000	4.37253	9.23634	1.19394	7.52265
2384.000	4.42363	9.17773	1.25124	7.48143
2385.000	4.38629	9.25550	1.22358	7.50302
2386.000	4.40201	9.12773	1.23148	7.52059
2387.000	4.41577	9.18556	1.19789	7.52850
2388.000	4.39808	9.19351	1.21963	7.57340
2389.000	4.37843	9.14928	1.27693	7.51460
2390.000	4.36467	9.19005	1.26508	7.49508
2391.000	4.46490	9.19269	1.27693	7.55174
2392.000	4.44525	9.21806	1.19987	7.50699
2393.000	4.36270	9.16880	1.20184	7.48939
2394.000	4.39612	9.15100	1.22555	7.53234
2395.000	4.40791	9.21465	1.25717	7.51856
2396.000	4.40005	9.23407	1.23346	7.55772
2397.000	4.43346	9.20467	1.20777	7.56757
2398.000	4.42559	9.25115	1.24927	7.47362
2399.000	4.44721	9.25861	1.16034	7.54033
2400.000	4.36860	9.17647	1.16825	7.52467
2401.000	4.42559	9.16611	1.23346	7.52840
2402.000	4.39808	9.17031	1.22160	7.48347
2403.000	4.38432	9.19561	1.25915	7.52833
2404.000	4.46097	9.22366	1.19789	7.57150
2405.000	4.39022	9.21680	1.18208	7.46794
2406.000	4.38236	9.15310	1.20777	7.53238
2407.000	4.40201	9.20699	1.18603	7.48748
2408.000	4.46490	9.21782	1.24532	7.50882
2409.000	4.37843	9.19568	1.19394	7.49919
2410.000	4.45704	9.17733	1.23741	7.51471
2411.000	4.44721	9.17938	1.25915	7.47555
2412.000	4.43346	9.23753	1.21963	7.49325
2413.000	4.40594	9.19535	1.19789	7.53241
2414.000	4.39808	9.17998	1.22555	7.57143
2415.000	4.42363	9.21639	1.20975	7.51870
2416.000	4.39415	9.21482	1.19789	7.48158
2417.000	4.43149	9.19890	1.27693	7.51460
2418.000	4.35877	9.18238	1.18208	7.51095
2419.000	4.42559	9.20477	1.22951	7.50887
2420.000	4.47669	9.16742	1.21370	7.48936
2421.000	4.41380	9.18945	1.23544	7.51667
2422.000	4.43739	9.20656	1.16627	7.55791
2423.000	4.43149	9.18344	1.19196	7.50701
2424.000	4.44721	9.21224	1.25520	7.54789
2425.000	4.42363	9.18160	1.19591	7.50309
2426.000	4.45704	9.25656	1.23346	7.48735
2427.000	4.39415	9.24381	1.22358	7.54798
2428.000	4.39808	9.24569	1.20579	7.49525
2429.000	4.43346	9.20661	1.25124	7.52444
2430.000	4.39612	9.22059	1.17022	7.50121
2431.000	4.42166	9.23574	1.17220	7.56767
2432.000	4.45507	9.23919	1.23148	7.51277
2433.000	4.44721	9.27407	1.21370	7.50500
2434.000	4.40987	9.20690	1.19591	7.53046
2435.000	4.47079	9.18875	1.28286	7.48525
2436.000	4.46686	9.15787	1.23544	7.47952
2437.000	4.42756	9.16415	1.26508	7.52440
2438.000	4.38039	9.23045	1.25124	7.47557
2439.000	4.43542	9.27035	1.21370	7.52846
2440.000	4.43739	9.21622	1.21963	7.49130
2441.000	4.40791	9.22431	1.22160	7.58512
2442.000	4.39218	9.23417	1.23939	7.54989
2443.000	4.38629	9.20718	1.21370	7.48349
2444.000	4.38825	9.22069	1.23939	7.54012
2445.000	4.44328	9.20455	1.20382	7.50112
2446.000	4.43149	9.24142	1.26508	7.47162
2447.000	4.42166	9.23381	1.22753	7.57924
2448.000	4.39415	9.15296	1.25717	7.55179
2449.000	4.44132	9.19685	1.19789	7.52068
2450.000	4.48258	9.22726	1.24334	7.51274
2451.000	4.47276	9.18680	1.25717	7.50879
2452.000	4.43346	9.22014	1.23346	7.48148
2453.000	4.45311	9.24501	1.23544	7.49712
2454.000	4.41773	9.18747	1.22555	7.51279
2455.000	4.40594	9.22240	1.23544	7.50885
2456.000	4.43346	9.21820	1.24927	7.48926
2457.000	4.39612	9.21093	1.25915	7.52247
2458.000	4.44918	9.20062	1.23544	7.49712
2459.000	4.39022	9.22453	1.25520	7.53225
2460.000	4.44328	9.19876	1.19196	7.48160
2461.000	4.42363	9.19126	1.25717	7.50488
2462.000	4.49634	9.20197	1.23544	7.50689
2463.000	4.52581	9.19773	1.28681	7.51652
2464.000	4.41577	9.22808	1.22358	7.49520
2465.000	4.43935	9.20847	1.28286	7.47743
2466.000	4.42363	9.21832	1.23939	7.56357
2467.000	4.42756	9.17769	1.25717	7.49119
2468.000	4.46490	9.25067	1.23346	7.50103
2469.000	4.45507	9.18508	1.32040	7.50078
2470.000	4.46883	9.24289	1.26508	7.49704
2471.000	4.47276	9.19453	1.27100	7.52048
2472.000	4.43739	9.29930	1.27496	7.56347
2473.000	4.45704	9.24497	1.24532	7.60655
2474.000	4.48258	9.21953	1.30064	7.52430
2475.000	4.46490	9.21202	1.27891	7.45985
2476.000	4.44721	9.15811	1.25915	7.50292
2477.000	4.42363	9.19513	1.30064	7.51453
2478.000	4.48062	9.22342	1.26112	7.54005
2479.000	4.45507	9.24306	1.28088	7.55954
2480.000	4.42756	9.20281	1.21765	7.54409
2481.000	4.48455	9.20598	1.31250	7.52818
2482.000	4.43739	9.24328	1.29472	7.51259
2483.000	4.49437	9.23677	1.28484	7.57712
2484.000	4.45507	9.26818	1.22951	7.62613
2485.000	4.48062	9.19057	1.24136	7.57334
2486.000	4.43739	9.22009	1.30657	7.59269
2487.000	4.43739	9.19883	1.24334	7.55965
2488.000	4.45507	9.24692	1.21370	7.58514
2489.000	4.44132	9.19878	1.27496	7.49114
2490.000	4.46293	9.18305	1.28088	7.52827
2491.000	4.41184	9.28223	1.19196	7.58520
2492.000	4.44132	9.18525	1.21370	7.49718
2493.000	4.44132	9.22390	1.25717	7.54984
2494.000	4.45900	9.13864	1.27298	7.52829
2495.000	4.42559	9.21637	1.24927	7.53422
2496.000	4.46097	9.21980	1.25717	7.53616
2497.000	4.40987	9.18950	1.25717	7.57134
2498.000	4.45507	9.16382	1.27100	7.64555
2499.000	4.46883	9.25255	1.24334	7.54988
2500.000	4.45311	9.23342	1.27298	7.56348
2501.000	4.44132	9.20458	1.25520	7.49902
2502.000	4.43935	9.21620	1.28088	7.59668
2503.000	4.47276	9.20612	1.26508	7.54982
2504.000	4.42363	9.26277	1.29076	7.60056
2505.000	4.45900	9.16184	1.24927	7.57136
2506.000	4.49241	9.19428	1.25717	7.58502
2507.000	4.44328	9.19489	1.20184	7.57149
2508.000	4.44918	9.22187	1.24334	7.52056
2509.000	4.46490	9.24680	1.26112	7.55569
2510.000	4.47472	9.22542	1.19789	7.53632
2511.000	4.49241	9.18655	1.25520	7.55375
2512.000	4.39218	9.18005	1.26508	7.55177
2513.000	4.42953	9.21245	1.24532	7.50882
2514.000	4.46293	9.18885	1.21963	7.51476
2515.000	4.41380	9.30732	1.26508	7.53613
2516.000	4.40594	9.25332	1.26508	7.52831
2517.000	4.48651	9.22335	1.30460	7.52429
2518.000	4.43346	9.24526	1.26508	7.46771
2519.000	4.45507	9.29329	1.26705	7.52831
2520.000	4.44721	9.24509	1.26705	7.56545
2521.000	4.49830	9.28889	1.26112	7.53028
2522.000	4.46686	9.23712	1.25717	7.52247
2523.000	4.49241	9.27351	1.32040	7.51056
2524.000	4.46883	9.24482	1.26112	7.58305
2525.000	4.45900	9.23915	1.35795	7.44592
2526.000	4.45900	9.24108	1.29472	7.45589
2527.000	4.48651	9.19049	1.28088	7.43637
2528.000	4.46490	9.26419	1.26705	7.43250
2529.000	4.49044	9.21750	1.27298	7.50288
2530.000	4.46490	9.22555	1.29076	7.43243
2531.000	4.44721	9.21417	1.30064	7.48716
2532.000	4.48062	9.21376	1.23939	7.45800
2533.000	4.46490	9.20429	1.30460	7.46955
2534.000	4.46490	9.26419	1.28088	7.49308
2535.000	4.40987	9.16437	1.30855	7.44607
2536.000	4.41184	9.21460	1.33226	7.47533
2537.000	4.42559	9.24729	1.31645	7.45191
2538.000	4.44328	9.26832	1.25322	7.42081
2539.000	4.41577	9.18943	1.27496	7.41683
2540.000	4.42166	9.18356	1.32831	7.47143
2541.000	4.46490	9.23714	1.35795	7.50654
2542.000	4.44132	9.22197	1.24729	7.45211
2543.000	4.45114	9.23924	1.29274	7.51064
2544.000	4.47079	9.22934	1.32040	7.47732
2545.000	4.45114	9.23538	1.34214	7.44206
2546.000	4.47079	9.25446	1.27891	7.50482
2547.000	4.45311	9.22762	1.28088	7.48917
2548.000	4.45704	9.19472	1.30460	7.43826
2549.000	4.46490	9.19462	1.33028	7.53008
2550.000	4.41380	9.16625	1.33621	7.53788
2551.000	4.49634	9.16524	1.28681	7.51652
2552.000	4.48848	9.21752	1.31448	7.48516
2553.000	4.45507	9.23919	1.36190	7.44982
2554.000	4.47079	9.17909	1.30657	7.47541
2555.000	4.47472	9.20030	1.28879	7.45395
2556.000	4.43739	9.21815	1.23544	7.55576
2557.000	4.46883	9.20810	1.28879	7.47742
2558.000	4.45311	9.22183	1.30262	7.48715
2559.000	4.43542	9.21045	1.30064	7.45587
2560.000	4.49437	9.23871	1.31645	7.49298
2561.000	4.44721	9.19291	1.28286	7.47352
2562.000	4.47079	9.22161	1.35004	7.45377
2563.000	4.43739	9.17950	1.33424	7.45382
2564.000	4.51795	9.11084	1.32831	7.47534
2565.000	4.45311	9.25468	1.30855	7.45389
2566.000	4.51795	9.16111	1.32040	7.45581
2567.000	4.48455	9.18858	1.33621	7.44795
2568.000	4.50813	9.18636	1.32831	7.49294
2569.000	4.45114	9.15420	1.31250	7.53209
2570.000	4.43542	9.22204	1.27891	7.44225
2571.000	4.43935	9.18527	1.37178	7.49281
2572.000	4.41970	9.19518	1.28484	7.43050
2573.000	4.40398	9.18764	1.26112	7.48336
2574.000	4.42166	9.23574	1.30657	7.39523
2575.000	4.43935	9.19880	1.28286	7.47743
2576.000	4.44918	9.19095	1.27496	7.46963
2577.000	4.44525	9.23932	1.28088	7.50286
2578.000	4.41184	9.18754	1.28879	7.50088
2579.000	4.42953	9.19313	1.31843	7.48124
2580.000	4.46686	9.18880	1.28088	7.50481
2581.000	4.41970	9.20678	1.24136	7.45995
2582.000	4.43935	9.16401	1.27298	7.47746
2583.000	4.40005	9.18962	1.23939	7.48538
2584.000	4.44918	9.21414	1.26508	7.48335
2585.000	4.42363	9.18933	1.30657	7.50083
2586.000	4.45114	9.22958	1.26705	7.46770
2587.000	4.41380	9.18559	1.22951	7.45412
2588.000	4.46883	9.22743	1.28088	7.48526
2589.000	4.45900	9.23915	1.29274	7.43047
2590.000	4.44525	9.21226	1.23544	7.54208
2591.000	4.48848	9.16534	1.35004	7.52806
2592.000	4.54349	9.11633	1.47254	7.51790
2593.000	4.65153	9.18262	1.74120	7.60485
2594.000	4.88713	9.22781	1.93278	7.57279
2595.000	5.05391	9.05939	2.14405	7.55813
2596.000	5.36370	9.04534	2.40065	7.47670
2597.000	5.66143	9.06598	2.76368	7.38862
2598.000	5.98819	8.92761	3.11269	7.33749
2599.000	6.32432	8.88924	3.45753	7.22947
2600.000	6.69317	8.83074	3.74897	7.21155
2601.000	6.93877	8.80893	4.15430	7.02832
2602.000	7.27361	8.63294	4.46293	6.95320
2603.000	7.55744	8.61011	4.79291	6.94804
2604.000	7.80986	8.49328	5.09118	6.84143
2605.000	8.03289	8.42707	5.44796	6.83168
2606.000	8.36408	8.26601	5.73582	6.82640
2607.000	8.62709	8.16794	6.02730	6.71165
2608.000	9.03826	8.12238	6.32237	6.52455
2609.000	9.27142	8.03244	6.65612	6.37588
2610.000	9.64268	8.02196	6.83159	6.42626
2611.000	9.90764	7.94839	7.18800	6.38240
2612.000	10.13770	7.96971	7.46222	6.30057
2613.000	10.43436	7.99302	7.62543	6.35081
2614.000	10.74191	7.98511	7.92431	6.31128
2615.000	10.89831	7.99824	8.20727	6.20767
2616.000	11.22584	7.92243	8.46856	6.09268
2617.000	11.43111	7.84029	8.56330	6.11064
2618.000	11.62661	7.85020	8.85692	6.10393
2619.000	11.93543	7.71538	9.05176	6.05795
2620.000	12.04703	7.60712	9.30993	5.96620
2621.000	12.33414	7.51877	9.42348	6.02638
2622.000	12.39073	7.49042	9.61578	5.99779
2623.000	12.60744	7.35630	9.85200	5.85784
2624.000	12.76549	7.22388	9.96710	5.89845
2625.000	12.87639	7.24746	10.14344	5.86232
2626.000	12.99470	7.27267	10.34829	5.79270
2627.000	13.15040	7.16708	10.34829	5.84306
2628.000	13.30590	7.13587	10.46113	5.86807
2629.000	13.35457	7.09633	10.50509	5.86918
2630.000	13.34708	7.21470	10.61591	5.77225
2631.000	13.39386	7.22093	10.53376	5.78152
2632.000	13.44998	7.27258	10.58344	5.76511
2633.000	13.30964	7.25200	10.61782	5.78576
2634.000	13.31526	7.28232	10.58153	5.77676
2635.000	13.28717	7.28506	10.55669	5.79465
2636.000	13.31713	7.33940	10.57197	5.77694
2637.000	13.24035	7.28644	10.60827	5.75110
2638.000	13.20475	7.31989	10.50318	5.75305
2639.000	13.21225	7.34634	10.49362	5.76484
2640.000	13.16540	7.22956	10.53567	5.80085
2641.000	13.23660	7.27322	10.50127	5.78794
2642.000	13.20288	7.15411	10.55860	5.79268
2643.000	13.32462	7.13913	10.58153	5.81741
2644.000	13.37702	7.19286	10.60254	5.82669
2645.000	13.34708	7.22422	10.54331	5.77941
2646.000	13.40322	7.15969	10.61591	5.83031
2647.000	13.42567	7.17046	10.61591	5.86707
2648.000	13.49298	7.19322	10.61018	5.81880
2649.000	13.43128	7.17411	10.59299	5.77655
2650.000	13.46868	7.16919	10.60636	5.78210
2651.000	13.49298	7.17418	10.59681	5.84809
2652.000	13.55466	7.13236	10.57579	5.80397
2653.000	13.48177	7.16880	10.56242	5.80809
2654.000	13.44063	7.16431	10.58344	5.76511
2655.000	13.53410	7.16153	10.57006	5.79633
2656.000	13.48924	7.20476	10.59108	5.82884
2657.000	13.53223	7.21299	10.56624	5.74607
2658.000	13.48363	7.18208	10.55669	5.82949
2659.000	13.51541	7.19827	10.52229	5.82627
2660.000	13.42005	7.18777	10.50892	5.86330
2661.000	13.42941	7.20083	10.44774	5.84315
2662.000	13.44624	7.18700	10.47260	5.89882
2663.000	13.49859	7.24066	10.44583	5.81801
2664.000	13.43502	7.11875	10.46113	5.85452
2665.000	13.48737	7.18387	10.45730	5.87201
2666.000	13.48177	7.17261	10.44392	5.82967
2667.000	13.43876	7.21960	10.43053	5.81055
2668.000	13.42754	7.17231	10.45539	5.82752
2669.000	13.43315	7.20072	10.44392	5.85677
2670.000	13.42754	7.17993	10.38464	5.91210
2671.000	13.47803	7.18415	10.41715	5.83597
2672.000	13.40883	7.18239	10.44201	5.74449
2673.000	13.46681	7.22257	10.43818	5.80654
2674.000	13.44250	7.16616	10.42289	5.79520
2675.000	13.40883	7.12333	10.37890	5.85605
2676.000	13.47803	7.17653	10.38846	5.87330
2677.000	13.46681	7.19781	10.36551	5.85436
2678.000	13.42005	7.20492	10.42097	5.76812
2679.000	13.45185	7.14112	10.38272	5.87341
2680.000	13.45746	7.18666	10.40185	5.83819
2681.000	13.48550	7.17821	10.40950	5.81094
2682.000	13.41444	7.23365	10.45922	5.76742
2683.000	13.43689	7.19489	10.40950	5.82643
2684.000	13.41257	7.15561	10.40759	5.76643
2685.000	13.45746	7.14857	10.41715	5.83597
2686.000	13.44624	7.14128	10.39229	5.78221
2687.000	13.42005	7.15158	10.39037	5.82291
2688.000	13.48550	7.14203	10.39420	5.75505
2689.000	13.38264	7.18507	10.45157	5.79273
2690.000	13.44811	7.20599	10.40759	5.79936
2691.000	13.43876	7.16817	10.40376	5.83622
2692.000	13.42567	7.21999	10.39802	5.85763
2693.000	13.42567	7.16094	10.41906	5.86498
2694.000	13.45933	7.13327	10.41524	5.83795
2695.000	13.42941	7.19892	10.37890	5.87929
2696.000	13.46120	7.19036	10.38464	5.85788
2697.000	13.45559	7.17529	10.37507	5.90453
2698.000	13.46120	7.17322	10.41906	5.89402
2699.000	13.47616	7.17468	10.39994	5.82855
2700.000	13.46494	7.14644	10.40950	5.83612
2701.000	13.46120	7.18465	10.46113	5.87000
2702.000	13.44063	7.14716	10.42097	5.85527
2703.000	13.46681	7.16544	10.45730	5.85071
2704.000	13.53410	7.16344	10.43818	5.85688
2705.000	13.50046	7.15491	10.47642	5.82325
2706.000	13.47429	7.10616	10.46304	5.81769
2707.000	13.41818	7.20307	10.42480	5.87456
2708.000	13.49859	7.19306	10.42289	5.85910
2709.000	13.44250	7.12425	10.45157	5.87212
2710.000	13.44437	7.16420	10.48407	5.78632
2711.000	13.48177	7.14976	10.41524	5.93088
2712.000	13.43689	7.20251	10.48216	5.85606
2713.000	13.49485	7.13413	10.45157	5.77143
2714.000	13.47055	7.19199	10.48407	5.86957
2715.000	13.45559	7.17910	10.43627	5.82787
2716.000	13.45933	7.13708	10.49362	5.79583
2717.000	13.40696	7.19959	10.40567	5.79745
2718.000	13.45185	7.25158	10.50509	5.79948
2719.000	13.46494	7.19025	10.43436	5.80661
2720.000	13.46681	7.18258	10.48024	5.79220
2721.000	13.44811	7.19646	10.45730	5.82942
2722.000	13.45746	7.17714	10.43818	5.76974
2723.000	13.45372	7.17154	10.50127	5.76858
2724.000	13.49672	7.24071	10.48598	5.80178
2725.000	13.46868	7.23965	10.44966	5.84505
2726.000	13.44250	7.21758	10.46877	5.82920
2727.000	13.41444	7.18413	10.50700	5.75491
2728.000	13.40509	7.21679	10.39994	5.79175
2729.000	13.47616	7.26989	10.49362	5.80163
2730.000	13.47429	7.21092	10.46304	5.76735
2731.000	13.41631	7.21074	10.47451	5.74777
2732.000	13.48737	7.19530	10.49554	5.80547
2733.000	13.47429	7.21282	10.42289	5.81069
2734.000	13.43876	7.15674	10.41906	5.84368
2735.000	13.47803	7.22223	10.46495	5.83315
2736.000	13.51728	7.22296	10.42480	5.82421
2737.000	13.54718	7.22206	10.45348	5.83530
2738.000	13.44998	7.26496	10.46113	5.82547
2739.000	13.44811	7.28405	10.40759	5.84390
2740.000	13.50233	7.24625	10.44583	5.82769
2741.000	13.49859	7.18544	10.42671	5.83967
2742.000	13.51167	7.20409	10.39420	5.83059
2743.000	13.48924	7.23142	10.41141	5.82833
2744.000	13.50233	7.23864	10.43818	5.83558
2745.000	13.50233	7.22150	10.41141	5.85932
2746.000	13.54905	7.21249	10.42671	5.78738
2747.000	13.49859	7.21591	10.40567	5.86136
2748.000	13.51354	7.20213	10.47833	5.75544
2749.000	13.50233	7.19294	10.43053	5.79506
2750.000	13.44998	7.22688	10.41906	5.80108
2751.000	13.53784	7.22996	10.46686	5.84860
2752.000	13.49672	7.27307	10.44201	5.81615
2753.000	13.56960	7.20807	10.43245	5.80664
2754.000	13.50981	7.17939	10.44966	5.83150
2755.000	13.52102	7.25902	10.41715	5.86502
2756.000	13.45372	7.26294	10.48216	5.77667
2757.000	13.51167	7.19457	10.40759	5.82066
2758.000	13.50420	7.21764	10.41332	5.74695
2759.000	13.55839	7.23315	10.40567	5.76065
2760.000	13.52289	7.21899	10.43436	5.84534
2761.000	13.48737	7.19339	10.42862	5.81252
2762.000	13.46120	7.20750	10.37698	5.86770
2763.000	13.49485	7.22363	10.39037	5.83260
2764.000	13.47055	7.26625	10.44774	5.83734
2765.000	13.51541	7.25728	10.44774	5.80055
2766.000	13.45559	7.18672	10.41332	5.79344
2767.000	13.43128	7.19696	10.44201	5.83551
2768.000	13.53971	7.19944	10.43245	5.83375
2769.000	13.50420	7.22526	10.45730	5.81586
2770.000	13.46120	7.21702	10.40759	5.83615
2771.000	13.47429	7.23758	10.44583	5.78897
2772.000	13.44811	7.20218	10.42671	5.82805
2773.000	13.42754	7.22564	10.42289	5.83199
2774.000	13.49859	7.21591	10.46495	5.83896
2775.000	13.45746	7.18666	10.47069	5.74784
2776.000	13.46868	7.21680	10.42480	5.86100
2777.000	13.50046	7.22918	10.41524	5.82826
2778.000	13.53784	7.23377	10.45539	5.81977
2779.000	13.46681	7.23399	10.39229	5.79189
2780.000	13.46120	7.16751	10.43053	5.81830
2781.000	13.48550	7.18393	10.48024	5.79414
2782.000	13.53597	7.20146	10.43818	5.86463
2783.000	13.49111	7.18376	10.44392	5.81030
2784.000	13.48737	7.25051	10.44966	5.83150
2785.000	13.57707	7.23829	10.35020	5.80816
2786.000	13.52476	7.19228	10.43818	5.82784
2787.000	13.50981	7.19272	10.47833	5.77675
2788.000	13.56400	7.26153	10.48216	5.80959
2789.000	13.52102	7.21523	10.45539	5.80234
2790.000	13.49672	7.20834	10.45922	5.80227
2791.000	13.49859	7.21781	10.37698	5.83091
2792.000	13.52476	7.19037	10.43818	5.80073
2793.000	13.54344	7.27166	10.42097	5.77393
2794.000	13.54531	7.20689	10.51083	5.79357
2795.000	13.46494	7.26261	10.45730	5.80037
2796.000	13.57334	7.23270	10.42480	5.78354
2797.000	13.48924	7.26188	10.38655	5.80749
2798.000	13.49111	7.28847	10.47642	5.77678
2799.000	13.55279	7.25996	10.45730	5.85652
2800.000	13.52663	7.24172	10.44583	5.86061
2801.000	13.58455	7.35413	10.42289	5.90170
2802.000	13.55839	7.23695	10.43436	5.90535
2803.000	13.51167	7.23836	10.37507	5.78446
2804.000	13.50233	7.12820	10.40376	5.74519
2805.000	13.47055	7.09103	10.43818	5.57213
2806.000	13.43502	7.01203	10.36359	5.44354
2807.000	13.39199	6.91602	10.28897	5.32647
2808.000	13.38825	6.68523	10.29088	5.19057
2809.000	13.33211	6.43840	10.21431	5.02283
2810.000	13.31900	6.11358	10.12237	4.79875
2811.000	13.25908	5.97912	10.17984	4.51584
2812.000	13.22724	5.76334	10.17984	4.33871
2813.000	13.24597	5.52510	10.09363	4.20937
2814.000	13.33772	5.28511	10.14344	4.15418
2815.000	13.18601	5.16546	10.13578	4.08025
2816.000	13.14290	5.04335	10.11279	3.94606
2817.000	13.08289	5.03496	10.09938	3.85460
2818.000	13.07539	5.02358	10.03229	3.75007
2819.000	13.13353	5.02624	10.05721	3.72833
2820.000	13.07539	5.00242	9.94409	3.84473
2821.000	13.07727	4.95431	9.95943	3.72750
2822.000	13.13728	4.92426	9.89421	3.69506
2823.000	13.09040	4.83670	9.87694	3.58008
2824.000	13.16165	4.70449	9.82705	3.44587
2825.000	13.13353	4.64537	9.83472	3.40673
2826.000	13.10728	4.60158	9.80401	3.30741
2827.000	13.14665	4.31201	9.78481	3.24702
2828.000	13.15040	4.14432	9.76753	3.14947
2829.000	13.12040	3.93276	9.77137	3.06928
2830.000	13.00033	3.99254	9.75025	2.92283
2831.000	12.93087	3.91646	9.72721	2.90934
2832.000	12.82754	3.87752	9.61001	2.86144
2833.000	12.79182	3.76991	9.51581	2.95225
2834.000	12.65262	3.86666	9.50235	2.87408
2835.000	12.65450	3.82219	9.51581	2.88963
2836.000	12.60932	3.87505	9.51196	2.97772
2837.000	12.63191	3.90949	9.45234	3.04086
2838.000	12.65073	3.98455	9.47350	3.05242
2839.000	12.61120	4.03539	9.44465	3.06441
2840.000	12.70342	4.02814	9.47350	3.14829
2841.000	12.71095	4.04734	9.47350	3.21089
2842.000	12.71659	4.10903	9.47735	3.22063
2843.000	12.68273	4.14433	9.46581	3.21292
2844.000	12.74105	4.17234	9.53312	3.17513
2845.000	12.81438	3.99357	9.56580	3.12984
2846.000	12.82941	4.13422	9.57733	3.11017
2847.000	12.87264	4.04089	9.57541	3.05933
2848.000	12.78242	4.05778	9.49273	3.01507
2849.000	12.74293	4.04104	9.52158	3.03438
2850.000	12.86136	3.97352	9.53888	2.93053
2851.000	12.75985	4.05428	9.49658	3.02091
2852.000	12.71847	3.98542	9.54081	2.90311
2853.000	12.82002	3.98962	9.49850	2.85259
2854.000	12.79370	3.95721	9.50812	2.87795
2855.000	12.76549	3.92289	9.54465	2.88156
2856.000	12.71283	3.85030	9.51196	2.88379
2857.000	12.77678	3.97099	9.46004	2.94490
2858.000	12.70531	3.92575	9.49273	2.91722
2859.000	12.70907	3.92763	9.53888	2.94422
2860.000	12.76361	3.93451	9.44657	2.93719
2861.000	12.75233	3.91344	9.52543	2.92477
2862.000	12.80122	3.81033	9.54465	2.89330
2863.000	12.79182	3.87421	9.50427	2.96800
2864.000	12.79182	3.87034	9.54658	2.87763
2865.000	12.70907	3.84069	9.54658	2.87958
2866.000	12.71847	3.91396	9.53696	2.90119
2867.000	12.71471	3.93526	9.49466	2.90546
2868.000	12.77866	3.86861	9.54465	2.84242
2869.000	12.71471	3.89856	9.53312	2.88557
2870.000	12.69778	3.95870	9.51581	2.92485
2871.000	12.78242	3.84345	9.53504	2.91295
2872.000	12.72788	3.96982	9.54081	2.94421
2873.000	12.73540	3.95233	9.50043	2.94651
2874.000	12.78618	3.90905	9.51004	2.92882
2875.000	12.71471	3.90629	9.52543	2.88955
2876.000	12.87452	3.83432	9.54081	3.01073
2877.000	12.77302	3.87836	9.55042	2.86389
2878.000	12.75797	3.87086	9.52543	2.95217
2879.000	12.75985	3.91718	9.52543	2.91694
2880.000	12.76173	3.89398	9.51966	2.91504
2881.000	12.75609	3.96938	9.49466	2.95635
2882.000	12.77678	3.89954	9.49081	3.02096
2883.000	12.71659	3.90240	9.59271	2.92028
2884.000	12.71847	3.89657	9.53119	3.01082
2885.000	12.70531	3.93541	9.58118	2.90473
2886.000	12.71471	4.01831	9.55427	2.92257
2887.000	12.73917	4.00248	9.54273	2.96571
2888.000	12.71659	3.97773	9.55619	2.92059
2889.000	12.69025	3.94916	9.60809	2.94167
2890.000	12.72036	4.01243	9.54465	2.95591
2891.000	12.74669	3.97919	9.58118	2.92429
2892.000	12.72036	3.99891	9.54658	2.94220
2893.000	12.75797	3.97708	9.51581	2.87201
2894.000	12.73540	3.98709	9.52350	2.90326
2895.000	12.73540	4.01026	9.51773	2.94441
2896.000	12.72412	4.00658	9.56003	2.98904
2897.000	12.80686	3.93577	9.49273	2.95049
2898.000	12.74669	3.90387	9.55619	2.95973
2899.000	12.77678	4.00188	9.53888	2.94227
2900.000	12.75045	3.95982	9.54850	2.94414
2901.000	12.74105	3.98893	9.56003	2.96556
2902.000	12.72412	3.94671	9.53888	2.92857
2903.000	12.78242	3.88014	9.54658	2.96764
2904.000	12.77302	3.93050	9.56965	2.95961
2905.000	12.75233	3.93082	9.47350	3.01328
2906.000	12.73728	3.93685	9.57157	2.95959
2907.000	12.81626	3.92983	9.55427	2.95387
2908.000	12.72976	3.96593	9.54850	3.01066
2909.000	12.81626	4.02056	9.49658	2.93676
2910.000	12.79558	3.95139	9.56003	3.00078
2911.000	12.78994	3.96113	9.57157	2.96351
2912.000	12.78054	3.93424	9.50812	2.94645
2913.000	12.79558	3.86256	9.56965	3.01243
2914.000	12.81062	3.90095	9.55234	3.00867
2915.000	12.78430	3.91488	9.56580	2.95182
2916.000	12.77490	3.96137	9.52927	3.01670
2917.000	12.81062	3.85268	9.60040	2.87913
2918.000	12.80310	3.97830	9.52543	2.98348
2919.000	12.82754	3.95089	9.54081	2.93247
2920.000	12.80498	3.90490	9.55234	2.93041
2921.000	12.82941	3.92962	9.55234	2.96954
2922.000	12.78242	3.86276	9.55234	2.92650
2923.000	12.82754	3.92965	9.57157	2.97525
2924.000	12.80122	3.90689	9.54273	2.98528
2925.000	12.80310	3.94934	9.59463	2.96526
2926.000	12.82190	3.89499	9.59271	2.95354
2927.000	12.82566	3.92582	9.53504	2.94034
2928.000	12.80498	3.86435	9.54081	3.03225
2929.000	12.78430	3.99211	9.53888	2.98727
2930.000	12.82754	3.85435	9.53696	2.96772
2931.000	12.85197	3.90417	9.52158	3.06373
2932.000	12.83881	3.90824	9.61385	2.99053
2933.000	12.80310	4.01305	9.57157	3.00264
2934.000	12.81062	3.85461	9.56772	3.01636
2935.000	12.77490	3.92854	9.53888	3.02249
2936.000	12.84069	3.81939	9.56196	2.97337
2937.000	12.85948	3.80559	9.58118	2.96342
2938.000	12.83881	3.86576	9.52543	2.98935
2939.000	12.84821	3.87141	9.51389	2.97966
2940.000	12.82754	3.84083	9.49273	2.94462
2941.000	12.81814	3.88732	9.57541	2.95760
2942.000	12.81626	3.79658	9.50235	2.98172
2943.000	12.80122	3.88565	9.58310	2.99471
2944.000	12.85197	3.84818	9.52543	2.92281
2945.000	12.81814	3.86029	9.51581	2.99334
2946.000	12.78430	3.85308	9.56196	2.91272
2947.000	12.81250	3.83527	9.62923	2.95714
2948.000	12.92148	3.87221	9.61001	2.92796
2949.000	12.74293	3.85177	9.55619	2.97342
2950.000	12.85197	3.83081	9.57157	2.94590
2951.000	12.83317	3.77895	9.52543	2.98543
2952.000	12.85009	3.89262	9.58118	2.95168
2953.000	12.88391	3.84190	9.55811	2.97732
2954.000	12.84445	3.81933	9.55811	2.94601
2955.000	12.83317	3.77895	9.55427	2.98714
2956.000	12.86888	3.83248	9.53696	2.95794
2957.000	12.88203	3.75891	9.57926	2.94583
2958.000	12.87264	3.86524	9.57926	2.95953
2959.000	12.89518	3.84752	9.57733	2.95759
2960.000	12.92148	3.81430	9.52158	2.93067
2961.000	12.86888	3.81317	9.52158	2.95611
2962.000	12.83129	3.87167	9.63499	2.97078
2963.000	12.85385	3.81340	9.54658	2.95785
2964.000	12.79370	3.77761	9.60232	2.93389
2965.000	12.83505	3.79244	9.57541	2.92630
2966.000	12.80122	3.89724	9.58695	2.91446
2967.000	12.89330	3.81473	9.61193	2.98272
2968.000	12.86324	3.83836	9.55234	2.97346
2969.000	12.86136	3.79011	9.64652	2.97850
2970.000	12.87639	3.79182	9.56196	2.95576
2971.000	12.80310	3.81803	9.54273	2.99702
2972.000	12.85385	3.80760	9.55619	3.03407
2973.000	12.92711	3.79105	9.55042	2.95195
2974.000	12.81814	3.80235	9.57349	3.04957
2975.000	12.86700	3.85761	9.56772	3.02419
2976.000	12.89518	3.82049	9.56965	3.03395
2977.000	12.79370	3.80658	9.57733	3.07496
2978.000	12.82754	3.79062	9.58118	3.11014
2979.000	12.86700	3.82285	9.56196	2.98511
2980.000	12.79746	3.94943	9.60040	2.97304
2981.000	12.85385	3.89642	9.62346	3.06672
2982.000	12.78054	3.83382	9.58118	3.04754
2983.000	12.84069	3.77497	9.53696	3.06750
2984.000	12.87452	3.87680	9.53119	3.04212
2985.000	12.82190	3.75787	9.58310	3.02992
2986.000	12.82754	3.80028	9.56580	2.87355
2987.000	12.84633	3.77103	9.61578	2.90834
2988.000	12.81438	3.81979	9.58887	3.03378
2989.000	12.82754	3.87945	9.60617	2.97886
2990.000	12.78994	3.87617	9.60809	3.01014
2991.000	12.82941	3.83887	9.60809	2.98471
2992.000	12.82002	3.86219	9.55619	3.01255
2993.000	12.86136	3.79204	9.55042	3.01065
2994.000	12.84821	3.88493	9.55042	3.00869
2995.000	12.82566	3.83700	9.59463	2.99461
2996.000	12.81814	3.86415	9.58887	3.06312
2997.000	12.84069	3.77111	9.57349	3.05153
2998.000	12.82190	3.75401	9.56003	3.04382
2999.000	12.83505	3.82913	9.54850	3.04784
3000.000	12.83129	3.82339	9.57349	3.04761
3001.000	12.78242	3.80289	9.60232	3.07474
3002.000	12.85760	3.88478	9.57926	3.08668
3003.000	12.86512	3.84412	9.56772	3.08874
3004.000	12.88579	3.87276	9.60040	3.10996
3005.000	12.85573	3.80951	9.54850	3.15934
3006.000	12.74857	3.94440	9.53504	3.06361
3007.000	12.83693	4.06270	9.59271	3.11785
3008.000	12.82002	4.03788	9.58502	3.14335
3009.000	12.85948	3.96390	9.54850	3.11239
3010.000	12.72036	3.98153	9.54081	3.09094
3011.000	12.82002	3.98769	9.54273	3.16134
3012.000	12.79934	3.93781	9.51773	3.09898
3013.000	12.80310	3.89334	9.49658	3.12460
3014.000	12.79934	4.02469	9.55619	3.17882
3015.000	12.84633	3.95639	9.53696	3.11250
3016.000	12.87639	3.90187	9.57926	3.07495
3017.000	12.79746	3.91081	9.55619	3.07907
3018.000	12.80686	3.98210	9.56772	3.04962
3019.000	12.79934	3.95133	9.62731	3.08820
3020.000	12.76173	3.94226	9.57157	3.13174
3021.000	12.81626	3.88928	9.60232	3.06496
3022.000	12.80686	3.91453	9.50812	3.03254
3023.000	12.81062	4.03031	9.54465	3.02831
3024.000	12.83317	3.96431	9.55427	3.07713
3025.000	12.83693	3.99128	9.57541	3.05933
3026.000	12.78430	3.99983	9.58502	3.02208
3027.000	12.82002	4.03402	9.63691	3.06660
3028.000	12.78054	4.04623	9.64268	3.06068
3029.000	12.83505	4.05501	9.57349	3.08674
3030.000	12.73540	3.99674	9.61770	3.03744
3031.000	12.78430	4.00949	9.59848	3.06695
3032.000	12.77302	4.09461	9.59848	3.06499
3033.000	12.81814	4.04756	9.62346	3.05499
3034.000	12.85573	4.07976	9.53504	3.09491
3035.000	12.77678	4.19105	9.51966	3.14982
3036.000	12.79934	4.17910	9.58695	3.18636
3037.000	12.81062	4.19049	9.46581	3.19335
3038.000	12.81814	4.18844	9.47542	3.19718
3039.000	12.78618	4.26808	9.42733	3.26023
3040.000	12.83505	4.22867	9.32533	3.27488
3041.000	12.80122	4.29676	9.29260	3.23018
3042.000	12.87264	4.37461	9.30415	3.23007
3043.000	12.85948	4.36712	9.26372	3.27937
3044.000	12.82378	4.46030	9.22135	3.29346
3045.000	12.85573	4.42118	9.21942	3.29153
3046.000	12.82190	4.50661	9.11730	3.33163
3047.000	12.82002	4.48929	9.08260	3.38481
3048.000	12.86512	4.53089	9.05176	3.38705
3049.000	12.84445	4.53319	8.94182	3.46054
3050.000	12.97030	2.89199	9.00548	3.18969
3051.000	13.13915	2.82818	8.92639	3.56250
3052.000	13.27407	3.72210	8.60390	4.67120
3053.000	13.15790	5.14875	8.32344	6.05212
3054.000	13.23098	6.73538	10.08213	5.75098
3055.000	13.49111	8.45585	NaN	NaN
3056.000	13.85509	10.30245	NaN	NaN
3057.000	14.04130	12.00523	NaN	NaN
3058.000	NaN	NaN	NaN	NaN
3059.000	NaN	NaN	NaN	NaN
3060.000	NaN	NaN	NaN	NaN
3061.000	NaN	NaN	NaN	NaN
3062.000	NaN	NaN	NaN	NaN
3063.000	NaN	NaN	NaN	NaN
3064.000	NaN	NaN	NaN	NaN
3065.000	NaN	NaN	NaN	NaN
3066.000	NaN	NaN	NaN	NaN
3067.000	NaN	NaN	NaN	NaN
3068.000	NaN	NaN	NaN	NaN
3069.000	NaN	NaN	NaN	NaN
3070.000	NaN	NaN	NaN	NaN
3071.000	NaN	NaN	NaN	NaN
3072.000	NaN	NaN	NaN	NaN
3073.000	NaN	NaN	NaN	NaN
3074.000	NaN	NaN	NaN	NaN
3075.000	NaN	NaN	NaN	NaN
3076.000	NaN	NaN	NaN	NaN
3077.000	NaN	NaN	NaN	NaN
3078.000	NaN	NaN	NaN	NaN
3079.000	NaN	NaN	NaN	NaN
3080.000	NaN	NaN	NaN	NaN
3081.000	NaN	NaN	NaN	NaN
3082.000	NaN	NaN	NaN	NaN
3083.000	NaN	NaN	NaN	NaN
3084.000	NaN	NaN	NaN	NaN
3085.000	NaN	NaN	NaN	NaN
3086.000	NaN	NaN	NaN	NaN
3087.000	NaN	NaN	NaN	NaN
3088.000	NaN	NaN	NaN	NaN
3089.000	NaN	NaN	NaN	NaN
3090.000	NaN	NaN	NaN	NaN
3091.000	NaN	NaN	NaN	NaN
3092.000	NaN	NaN	NaN	NaN
3093.000	NaN	NaN	NaN	NaN
3094.000	NaN	NaN	NaN	NaN
3095.000	NaN	NaN	NaN	NaN
3096.000	NaN	NaN	NaN	NaN
3097.000	NaN	NaN	NaN	NaN
3098.000	NaN	NaN	NaN	NaN
3099.000	NaN	NaN	NaN	NaN
3100.000	NaN	NaN	NaN	NaN
3101.000	NaN	NaN	NaN	NaN
3102.000	NaN	NaN	NaN	NaN
3103.000	NaN	NaN	NaN	NaN
3104.000	NaN	NaN	NaN	NaN
3105.000	NaN	NaN	NaN	NaN
3106.000	NaN	NaN	NaN	NaN
3107.000	NaN	NaN	NaN	NaN
3108.000	NaN	NaN	NaN	NaN
3109.000	NaN	NaN	NaN	NaN
3110.000	NaN	NaN	NaN	NaN
3111.000	NaN	NaN	NaN	NaN
3112.000	NaN	NaN	NaN	NaN
3113.000	NaN	NaN	NaN	NaN
3114.000	NaN	NaN	NaN	NaN
3115.000	NaN	NaN	NaN	NaN
3116.000	NaN	NaN	NaN	NaN
3117.000	NaN	NaN	NaN	NaN
3118.000	NaN	NaN	NaN	NaN
3119.000	NaN	NaN	NaN	NaN
3120.000	NaN	NaN	NaN	NaN
3121.000	NaN	NaN	NaN	NaN
3122.000	NaN	NaN	NaN	NaN
3123.000	NaN	NaN	NaN	NaN
3124.000	NaN	NaN	NaN	NaN
3125.000	NaN	NaN	NaN	NaN
3126.000	NaN	NaN	NaN	NaN
3127.000	NaN	NaN	NaN	NaN
3128.000	NaN	NaN	NaN	NaN
3129.000	NaN	NaN	NaN	NaN
3130.000	NaN	NaN	NaN	NaN
3131.000	NaN	NaN	NaN	NaN
3132.000	NaN	NaN	NaN	NaN
3133.000	NaN	NaN	NaN	NaN
3134.000	NaN	NaN	NaN	NaN
3135.000	NaN	NaN	NaN	NaN
3136.000	NaN	NaN	NaN	NaN
3137.000	NaN	NaN	NaN	NaN
3138.000	NaN	NaN	NaN	NaN
3139.000	NaN	NaN	NaN	NaN
3140.000	NaN	NaN	NaN	NaN
3141.000	NaN	NaN	NaN	NaN
3142.000	NaN	NaN	NaN	NaN
3143.000	NaN	NaN	NaN	NaN
3144.000	NaN	NaN	NaN	NaN
3145.000	NaN	NaN	NaN	NaN
3146.000	NaN	NaN	NaN	NaN
3147.000	NaN	NaN	NaN	NaN
3148.000	NaN	NaN	NaN	NaN
3149.000	NaN	NaN	NaN	NaN
3150.000	NaN	NaN	NaN	NaN
3151.000	NaN	NaN	NaN	NaN
3152.000	NaN	NaN	NaN	NaN
3153.000	NaN	NaN	NaN	NaN
3154.000	NaN	NaN	NaN	NaN
3155.000	NaN	NaN	NaN	NaN
3156.000	NaN	NaN	NaN	NaN
3157.000	NaN	NaN	NaN	NaN
3158.000	NaN	NaN	NaN	NaN
3159.000	NaN	NaN	NaN	NaN
3160.000	NaN	NaN	NaN	NaN
3161.000	NaN	NaN	NaN	NaN
3162.000	NaN	NaN	NaN	NaN
3163.000	NaN	NaN	NaN	NaN
3164.000	NaN	NaN	NaN	NaN
3165.000	NaN	NaN	NaN	NaN
3166.000	NaN	NaN	NaN	NaN
3167.000	NaN	NaN	11.20872	8.29395
3168.000	NaN	NaN	7.37085	9.23951
3169.000	NaN	NaN	3.64265	9.75431
3170.000	NaN	NaN	3.62099	9.12276
3171.000	NaN	NaN	3.62493	8.54308
3172.000	NaN	NaN	3.63478	7.96157
3173.000	NaN	NaN	3.71747	7.30167
3174.000	NaN	NaN	3.77653	6.73997
3175.000	2.81496	12.72420	3.80999	6.24981
3176.000	5.63794	11.27947	3.87297	5.78803
3177.000	8.44148	9.25432	3.93791	5.28225
3178.000	8.36602	8.69150	3.98316	4.90195
3179.000	8.28085	8.20990	3.99890	4.47803
3180.000	8.20146	7.62235	4.04415	4.16009
3181.000	8.17435	7.17164	4.09923	3.94657
3182.000	8.15110	6.82089	4.13070	3.58881
3183.000	8.13560	6.31970	4.07759	3.39530
3184.000	7.95534	5.96411	4.10709	3.24487
3185.000	7.99412	5.71593	4.14643	3.17152
3186.000	7.88358	5.31527	4.16806	2.98546
3187.000	7.81374	5.19889	4.25655	3.00095
3188.000	7.73028	4.92608	4.17986	2.91616
3189.000	7.73028	4.83018	4.31159	2.92753
3190.000	7.67009	4.66638	4.31356	3.01656
3191.000	7.61960	4.40239	4.29980	3.04431
3192.000	7.62737	4.33958	4.33715	3.03229
3193.000	7.69339	4.24677	4.32929	3.06199
3194.000	7.67592	4.24498	4.33911	3.05800
3195.000	7.64873	4.24525	4.37843	3.10135
3196.000	7.75551	4.40099	4.30570	3.02054
3197.000	7.77298	4.43020	4.32339	3.06597
3198.000	7.70504	4.43287	4.35681	3.10539
3199.000	7.76328	4.49104	4.29980	3.10167
3200.000	7.77492	4.54576	4.31553	3.05809
3201.000	7.75551	4.55185	4.29587	3.09180
3202.000	7.74775	4.57152	4.31553	3.16292
3203.000	7.80403	4.60224	4.23885	3.27201
3204.000	7.71669	4.62082	4.28407	3.15316
3205.000	7.73028	4.60696	4.33322	3.23800
3206.000	7.66621	4.57631	4.26441	3.26004
3207.000	7.67980	4.64473	4.31159	3.25589
3208.000	7.71281	4.56014	4.33715	3.26764
3209.000	7.70310	4.55437	4.23689	3.35705
3210.000	7.64291	4.52954	4.31749	3.34483
3211.000	7.70504	4.52888	4.29390	3.31528
3212.000	7.67980	4.55462	4.32142	3.34877
3213.000	7.73610	4.60494	4.26638	3.36285
3214.000	7.64679	4.57064	4.28014	3.44780
3215.000	7.71281	4.62282	4.26834	3.39645
3216.000	7.65844	4.61362	4.29783	3.41214
3217.000	7.62737	4.59828	4.33322	3.34872
3218.000	7.62931	4.52772	4.28407	3.38452
3219.000	7.67592	4.48216	4.27621	3.43991
3220.000	7.57881	4.54197	4.27817	3.42013
3221.000	7.59629	4.47515	4.28604	3.45568
3222.000	7.59824	4.50257	4.29390	3.41413
3223.000	7.66427	4.54107	4.30176	3.40026
3224.000	7.60406	4.48487	4.28604	3.41614
3225.000	7.57492	4.48322	4.27621	3.36281
3226.000	7.56521	4.45784	4.34894	3.40993
3227.000	7.58464	4.51055	4.25261	3.35500
3228.000	7.60795	4.44759	4.28407	3.43394
3229.000	7.54773	4.43449	4.31356	3.37253
3230.000	7.54384	4.49138	4.28997	3.31332
3231.000	7.58270	4.38904	4.27031	3.27584
3232.000	7.49720	4.43893	4.34305	3.26366
3233.000	7.52052	4.39359	4.32929	3.37246
3234.000	7.57881	4.42045	4.25655	3.30556
3235.000	7.55938	4.49318	4.28997	3.33112
3236.000	7.57881	4.50670	4.32535	3.29933
3237.000	7.58852	4.43799	4.27228	3.24023
3238.000	7.52247	4.44063	4.32339	3.31911
3239.000	7.50886	4.51526	4.29587	3.33702
3240.000	7.55161	4.50110	4.31553	3.29541
3241.000	7.54384	4.53450	4.31749	3.30331
3242.000	7.56327	4.43433	4.32339	3.37644
3243.000	7.51858	4.45243	4.32339	3.33097
3244.000	7.55355	4.44031	4.29390	3.34889
3245.000	7.47777	4.47441	4.29390	3.35680
3246.000	7.55744	4.45399	4.27817	3.40629
3247.000	7.52247	4.54256	4.29194	3.39042
3248.000	7.56327	4.54801	4.29390	3.45367
3249.000	7.51081	4.50152	4.29980	3.41213
3250.000	7.57492	4.50674	4.26048	3.41428
3251.000	7.58075	4.49884	4.32535	3.46736
3252.000	7.58075	4.49296	4.28014	3.49128
3253.000	7.55744	4.51084	4.30766	3.44570
3254.000	7.50692	4.48000	4.34305	3.40403
3255.000	7.55744	4.50692	4.27228	3.47748
3256.000	7.55355	4.46776	4.29980	3.46550
3257.000	7.53024	4.48956	4.26638	3.47949
3258.000	7.49915	4.50164	4.26245	3.49532
3259.000	7.58270	4.52625	4.27621	3.43991
3260.000	7.47194	4.54897	4.28014	3.47349
3261.000	7.58270	4.49294	4.29194	3.49518
3262.000	7.53413	4.55616	4.27424	3.44585
3263.000	7.51081	4.55248	4.26834	3.50122
3264.000	7.51081	4.49172	4.25065	3.49339
3265.000	7.48166	4.49790	4.35287	3.39805
3266.000	7.52635	4.46804	4.30373	3.39432
3267.000	7.48554	4.60370	4.29783	3.46748
3268.000	7.51275	4.56618	4.25655	3.44790
3269.000	7.47583	4.47443	4.32535	3.41399
3270.000	7.49137	4.53112	4.32929	3.41793
3271.000	7.48360	4.46259	4.26834	3.39645
3272.000	7.47777	4.50578	4.27621	3.32920
3273.000	7.46611	4.48826	4.28211	3.44779
3274.000	7.46417	4.53729	4.29980	3.35875
3275.000	7.48943	4.54290	4.25261	3.31744
3276.000	7.49526	4.57812	4.25655	3.33917
3277.000	7.46222	4.54319	4.23295	3.25029
3278.000	7.49137	4.58600	4.28800	3.29158
3279.000	7.43112	4.51018	4.29980	3.29746
3280.000	7.44084	4.54929	4.30570	3.26777
3281.000	7.43501	4.57091	4.26441	3.24620
3282.000	7.46611	4.57255	4.24672	3.25814
3283.000	7.53024	4.57776	4.28604	3.27775
3284.000	7.46611	4.57255	4.29587	3.30341
3285.000	7.45250	4.56877	4.30570	3.25987
3286.000	7.49526	4.62908	4.27031	3.29561
3287.000	7.43306	4.60817	4.32535	3.28549
3288.000	7.47583	4.57637	4.28014	3.21251
3289.000	7.47194	4.62344	4.30963	3.22623
3290.000	7.46222	4.58043	4.27424	3.25407
3291.000	7.46417	4.63724	4.28604	3.27577
3292.000	7.44473	4.66097	4.32732	3.25582
3293.000	7.48554	4.63702	4.24278	3.24827
3294.000	7.41362	4.60054	4.27817	3.23823
3295.000	7.48166	4.60570	4.27031	3.18091
3296.000	7.49915	4.63100	4.25851	3.19678
3297.000	7.46028	4.61965	4.25851	3.26204
3298.000	7.47583	4.59597	4.26048	3.25808
3299.000	7.51858	4.59944	4.28604	3.19271
3300.000	7.43306	4.61601	4.26048	3.26006
3301.000	7.49332	4.57422	4.29194	3.22433
3302.000	7.45833	4.67062	4.28211	3.21844
3303.000	7.45056	4.58839	4.27424	3.24418
3304.000	7.46805	4.66660	4.29194	3.27377
3305.000	7.41946	4.66123	4.27228	3.27780
3306.000	7.45445	4.60011	4.29980	3.15112
3307.000	7.46611	4.63134	4.26638	3.22048
3308.000	7.46611	4.58235	4.29194	3.23224
3309.000	7.47777	4.58615	4.30176	3.25593
3310.000	7.42918	4.59841	4.29980	3.28757
3311.000	7.49137	4.62324	4.28014	3.25800
3312.000	7.48360	4.55081	4.23492	3.25819
3313.000	7.44473	4.61001	4.27621	3.24813
3314.000	7.49332	4.58402	4.25458	3.26997
3315.000	7.46805	4.59017	4.29980	3.25198
3316.000	7.45639	4.62557	4.27031	3.23826
3317.000	7.48554	4.54098	4.33911	3.28543
3318.000	7.47777	4.57439	4.28604	3.28170
3319.000	7.49915	4.57220	4.32142	3.23211
3320.000	7.46611	4.63330	4.32732	3.24593
3321.000	7.40779	4.56727	4.23295	3.24237
3322.000	7.45833	4.51578	4.23885	3.27795
3323.000	7.39613	4.57523	4.29194	3.23817
3324.000	7.46611	4.58431	4.28997	3.28564
3325.000	7.49137	4.52720	4.32732	3.28943
3326.000	7.44278	4.57475	4.30570	3.26777
3327.000	7.46611	4.63526	4.29980	3.25791
3328.000	7.47000	4.60191	4.27621	3.27977
3329.000	7.44667	4.57863	4.27817	3.21845
3330.000	7.49720	4.61730	4.25261	3.21065
3331.000	7.44278	4.56691	4.30176	3.21835
3332.000	7.44862	4.52568	4.26441	3.23829
3333.000	7.42918	4.55333	4.28407	3.21250
3334.000	7.41362	4.57309	4.23492	3.27994
3335.000	7.45056	4.58447	4.24672	3.22847
3336.000	7.42529	4.53377	4.26834	3.23234
3337.000	7.34168	4.53266	4.20739	3.19304
3338.000	7.40390	4.61632	4.31356	3.23610
3339.000	7.41751	4.54757	4.27424	3.18880
3340.000	7.39418	4.55173	4.30963	3.21437
3341.000	7.38446	4.57927	4.27424	3.26198
3342.000	7.32807	4.56613	4.22116	3.21078
3343.000	7.38835	4.55571	4.24868	3.30163
3344.000	7.45250	4.51976	4.25065	3.29174
3345.000	7.35529	4.55017	4.25851	3.32334
3346.000	7.39807	4.53404	4.25851	3.23831
3347.000	7.36307	4.54224	4.26441	3.29761
3348.000	7.36113	4.51089	4.27228	3.30153
3349.000	7.36502	4.53046	4.28211	3.30149
3350.000	7.39224	4.58115	4.28604	3.21842
3351.000	7.36891	4.60688	4.27228	3.31735
3352.000	7.36113	4.57363	4.24082	3.24827
3353.000	7.36891	4.56963	4.28014	3.23822
3354.000	7.43695	4.56501	4.31749	3.24400
3355.000	7.39029	4.60862	4.28604	3.26390
3356.000	7.41557	4.52798	4.29390	3.27969
3357.000	7.42723	4.52002	4.26834	3.24420
3358.000	7.33001	4.58768	4.26638	3.27585
3359.000	7.41362	4.51820	4.26245	3.33914
3360.000	7.39613	4.53014	4.29980	3.34096
3361.000	7.37474	4.54605	4.29390	3.25794
3362.000	7.37280	4.56567	4.31159	3.27368
3363.000	7.35529	4.50115	4.23885	3.32343
3364.000	7.39807	4.48895	4.27228	3.27385
3365.000	7.41946	4.52010	4.29783	3.35481
3366.000	7.35335	4.52470	4.28014	3.28173
3367.000	7.35141	4.53648	4.29980	3.27373
3368.000	7.34168	4.47579	4.26245	3.30158
3369.000	7.36113	4.55011	4.29980	3.37061
3370.000	7.36891	4.50297	4.24868	3.35898
3371.000	7.32807	4.50338	4.23295	3.36102
3372.000	7.38446	4.44987	4.22902	3.32149
3373.000	7.38057	4.50873	4.27621	3.35095
3374.000	7.33974	4.48365	4.24672	3.35305
3375.000	7.34946	4.47179	4.26048	3.36881
3376.000	7.34946	4.45218	4.27031	3.38656
3377.000	7.31056	4.44276	4.22509	3.44014
3378.000	7.34363	4.51891	4.20542	3.43825
3379.000	7.34946	4.46983	4.21132	3.44217
3380.000	7.36502	4.45006	4.20936	3.41648
3381.000	7.36891	4.42649	4.27621	3.42607
3382.000	7.33390	4.46410	4.20346	3.46000
3383.000	7.33585	4.47781	4.19166	3.45808
3384.000	7.33001	4.50336	4.22116	3.45202
3385.000	7.30473	4.47812	4.23492	3.43219
3386.000	7.39613	4.49485	4.21132	3.50148
3387.000	7.37085	4.46569	4.24082	3.45390
3388.000	7.37085	4.48334	4.16610	3.50366
3389.000	7.35335	4.51881	4.27424	3.46561
3390.000	7.32418	4.45047	4.18969	3.46995
3391.000	7.33585	4.44447	4.19953	3.43432
3392.000	7.32807	4.48181	4.23099	3.49151
3393.000	7.30084	4.47032	4.19363	3.46004
3394.000	7.33585	4.51311	4.20739	3.45405
3395.000	7.34946	4.42668	4.19363	3.38294
3396.000	7.38835	4.44395	4.24475	3.37085
3397.000	7.34752	4.49730	4.18183	3.41067
3398.000	7.40002	4.48109	4.21919	3.38678
3399.000	7.35335	4.49528	4.23689	3.45195
3400.000	7.36891	4.46179	4.23295	3.39463
3401.000	7.35918	4.51679	4.17789	3.36323
3402.000	7.32612	4.54066	4.23295	3.32543
3403.000	7.32612	4.47399	4.17199	3.41269
3404.000	7.31251	4.53295	4.21919	3.45795
3405.000	7.39029	4.54393	4.19363	3.41062
3406.000	7.32418	4.50538	4.26245	3.42811
3407.000	7.33974	4.49150	4.20149	3.45408
3408.000	7.30473	4.52323	4.21329	3.33738
3409.000	7.34752	4.47181	4.22509	3.45002
3410.000	7.36696	4.42259	4.21329	3.42042
3411.000	7.33779	4.50132	4.19756	3.44817
3412.000	7.33390	4.47783	4.20739	3.34531
3413.000	7.33585	4.50723	4.20346	3.39476
3414.000	7.25415	4.49235	4.26048	3.40637
3415.000	7.31056	4.44276	4.21329	3.38285
3416.000	7.29695	4.57429	4.23099	3.46976
3417.000	7.33779	4.50525	4.10316	3.40508
3418.000	7.26582	4.47459	4.17003	3.45224
3419.000	7.30473	4.54088	4.25655	3.35696
3420.000	7.33585	4.46800	4.21919	3.40853
3421.000	7.30473	4.50754	4.21722	3.41249
3422.000	7.30278	4.49383	4.22312	3.43224
3423.000	7.24248	4.50816	4.23885	3.44403
3424.000	7.24637	4.50028	4.24278	3.42029
3425.000	7.29695	4.45074	4.23689	3.41834
3426.000	7.27166	4.53533	4.23295	3.41836
3427.000	7.32418	4.40536	4.17003	3.45422
3428.000	7.29111	4.51356	4.19363	3.37899
3429.000	7.32418	4.46028	4.21132	3.41845
3430.000	7.38057	4.53814	4.23885	3.36890
3431.000	7.31834	4.45837	4.28604	3.41614
3432.000	7.27750	4.51173	4.23099	3.36498
3433.000	7.22886	4.45730	4.24868	3.44003
3434.000	7.30084	4.50366	4.22116	3.44608
3435.000	7.24832	4.45907	4.23885	3.43810
3436.000	7.28917	4.38412	4.24278	3.44599
3437.000	7.27555	4.47057	4.27424	3.40038
3438.000	7.24248	4.40812	4.18969	3.43041
3439.000	7.24832	4.37863	4.23492	3.42230
3440.000	7.23470	4.40231	4.20149	3.45013
3441.000	7.30667	4.40357	4.22509	3.42630
3442.000	7.31056	4.39372	4.22509	3.42630
3443.000	7.29500	4.41741	4.25458	3.34906
3444.000	7.29306	4.43705	4.21919	3.46191
3445.000	7.27361	4.39604	4.28997	3.42601
3446.000	7.20940	4.38097	4.19363	3.43830
3447.000	7.28722	4.44495	4.22705	3.46780
3448.000	7.29306	4.40959	4.21722	3.49157
3449.000	7.22691	4.43574	4.20149	3.45803
3450.000	7.22108	4.40244	4.24475	3.37481
3451.000	7.27361	4.41370	4.20542	3.43825
3452.000	7.16464	4.42457	4.26441	3.43205
3453.000	7.24248	4.41989	4.22509	3.46584
3454.000	7.17827	4.41659	4.20739	3.44417
3455.000	7.22886	4.36312	4.24082	3.46972
3456.000	7.21329	4.36523	4.23885	3.44798
3457.000	7.25221	4.34524	4.24082	3.45786
3458.000	7.27944	4.40187	4.25655	3.40639
3459.000	7.18800	4.44789	4.22509	3.49351
3460.000	7.24053	4.41402	4.23295	3.46778
3461.000	7.25415	4.44528	4.21919	3.41842
3462.000	7.24053	4.38263	4.22312	3.43224
3463.000	7.23081	4.38665	4.25458	3.41431
3464.000	7.24053	4.37086	4.23885	3.49147
3465.000	7.23081	4.38665	4.24868	3.47166
3466.000	7.24248	4.38457	4.24672	3.41236
3467.000	7.17243	4.38329	4.26441	3.46566
3468.000	7.18410	4.39102	4.23885	3.48159
3469.000	7.21329	4.34954	4.22509	3.44409
3470.000	7.17632	4.36166	4.20542	3.43429
3471.000	7.13155	4.38564	4.23492	3.43416
3472.000	7.15102	4.43059	4.23099	3.46976
3473.000	7.19578	4.42623	4.24278	3.44203
3474.000	7.15296	4.35600	4.28604	3.46556
3475.000	7.12377	4.39945	4.27031	3.47354
3476.000	7.19383	4.37720	4.23295	3.47766
3477.000	7.20356	4.41046	4.23295	3.40056
3478.000	7.17243	4.39114	4.24082	3.49344
3479.000	7.20356	4.38299	4.27424	3.45573
3480.000	7.16075	4.32649	4.24868	3.47957
3481.000	7.13739	4.38166	4.23099	3.44802
3482.000	7.15686	4.40110	4.25851	3.46371
3483.000	7.12961	4.35033	4.28604	3.49916
3484.000	7.14713	4.43455	4.21722	3.48168
3485.000	7.11598	4.37990	4.26834	3.50517
3486.000	7.11987	4.40341	4.29194	3.44181
3487.000	7.12377	4.38179	4.30570	3.42989
3488.000	7.19578	4.43212	4.22705	3.49152
3489.000	7.21329	4.42606	4.21919	3.50342
3490.000	7.15686	4.40698	4.27817	3.49920
3491.000	7.16659	4.40493	4.21329	3.49159
3492.000	7.11014	4.38192	4.23689	3.44008
3493.000	7.12571	4.36607	4.26245	3.44195
3494.000	7.21719	4.41817	4.23885	3.47566
3495.000	7.11014	4.36229	4.27424	3.48143
3496.000	7.10819	4.40156	4.27031	3.50714
3497.000	7.13545	4.36794	4.25851	3.58032
3498.000	7.11209	4.40349	4.27621	3.51897
3499.000	7.06536	4.39608	4.30373	3.47141
3500.000	7.08483	4.32327	4.26834	3.49134
3501.000	7.13155	4.35620	4.25851	3.54277
3502.000	7.10430	4.34076	4.27424	3.52293
3503.000	7.16075	4.37947	4.24868	3.46771
3504.000	7.12571	4.37588	4.28014	3.48535
3505.000	7.13155	4.44255	4.25851	3.46964
3506.000	7.10235	4.47030	4.25851	3.54475
3507.000	7.07704	4.45681	4.25458	3.47756
3508.000	7.12182	4.38770	4.25851	3.49929
3509.000	7.05757	4.36083	4.26441	3.50717
3510.000	7.07510	4.34888	4.30176	3.49711
3511.000	7.14129	4.31293	4.23099	3.51918
3512.000	7.11598	4.42504	4.23689	3.50729
3513.000	7.13739	4.38951	4.22705	3.56663
3514.000	7.12377	4.40142	4.29194	3.47937
3515.000	7.11403	4.37796	4.29980	3.46945
3516.000	7.13350	4.44645	4.31553	3.50100
3517.000	7.16659	4.40297	4.31356	3.49113
3518.000	7.13739	4.38951	4.27621	3.48735
3519.000	7.12377	4.36020	4.23295	3.48557
3520.000	7.12961	4.37585	4.26048	3.51904
3521.000	7.09457	4.41543	4.27621	3.50118
3522.000	7.13350	4.38366	4.28800	3.47939
3523.000	7.08873	4.35661	4.27817	3.46164
3524.000	7.13739	4.34633	4.28014	3.49128
3525.000	7.11793	4.35241	4.27817	3.52885
3526.000	7.08289	4.34488	4.31946	3.52470
3527.000	7.11598	4.38971	4.30373	3.48920
3528.000	7.15296	4.40114	4.28800	3.45369
3529.000	7.10235	4.31918	4.30570	3.50500
3530.000	7.15880	4.29903	4.26638	3.38460
3531.000	7.10625	4.36429	4.28407	3.44185
3532.000	7.11403	4.29159	4.31356	3.40614
3533.000	7.11209	4.39368	4.28800	3.41218
3534.000	7.13350	4.38170	4.29390	3.42402
3535.000	7.10041	4.32705	4.34501	3.41786
3536.000	7.07315	4.28019	4.31553	3.41008
3537.000	7.12766	4.37587	4.31749	3.39228
3538.000	7.12377	4.39357	4.30373	3.34489
3539.000	7.11209	4.32302	4.30570	3.38640
3540.000	7.11403	4.37992	4.32732	3.35665
3541.000	7.14713	4.40512	4.33518	3.37243
3542.000	7.07704	4.29783	4.27228	3.29956
3543.000	7.09846	4.33100	4.32339	3.33295
3544.000	7.06926	4.38623	4.28014	3.29952
3545.000	7.05757	4.32156	4.26638	3.29958
3546.000	7.08483	4.30757	4.33125	3.31116
3547.000	7.12766	4.33269	4.31159	3.30532
3548.000	7.11598	4.39168	4.34698	3.33284
3549.000	7.02252	4.35526	4.32929	3.30524
3550.000	7.08873	4.34679	4.31356	3.37846
3551.000	7.06147	4.40790	4.33518	3.39023
3552.000	7.05757	4.34120	4.30176	3.40224
3553.000	7.07120	4.37640	4.27621	3.32327
3554.000	7.03615	4.32765	4.30570	3.34686
3555.000	7.04394	4.36095	4.28800	3.29751
3556.000	7.07510	4.39010	4.25458	3.29765
3557.000	7.11987	4.33080	4.35484	3.28140
3558.000	7.06926	4.35286	4.29194	3.37658
3559.000	7.11793	4.33867	4.32339	3.29933
3560.000	7.08094	4.38416	4.28997	3.30343
3561.000	7.08289	4.41554	4.31159	3.28950
3562.000	7.07510	4.39992	4.33125	3.28941
3563.000	7.06147	4.39219	4.34894	3.30713
3564.000	7.01473	4.40441	4.29587	3.29550
3565.000	7.08483	4.44300	4.28014	3.29359
3566.000	7.01863	4.39456	4.28407	3.30741
3567.000	7.13934	4.38360	4.28604	3.32125
3568.000	7.01278	4.39658	4.28211	3.28765
3569.000	7.05952	4.44913	4.32339	3.31713
3570.000	7.04784	4.40017	4.27424	3.31932
3571.000	7.05368	4.35694	4.29194	3.33111
3572.000	7.01473	4.40441	4.28407	3.37266
3573.000	7.07315	4.39993	4.31356	3.37055
3574.000	7.02836	4.37288	4.29980	3.30932
3575.000	6.99915	4.37904	4.34108	3.32694
3576.000	7.02642	4.35130	4.30373	3.36467
3577.000	7.06147	4.37453	4.29390	3.38448
3578.000	7.05368	4.35105	4.26048	3.36881
3579.000	7.04589	4.35897	4.31749	3.38240
3580.000	7.00499	4.36721	4.30373	3.46153
3581.000	7.03031	4.31396	4.26048	3.45184
3582.000	7.05563	4.34121	4.34501	3.40007
3583.000	6.98552	4.34972	4.30373	3.34489
3584.000	7.07315	4.38423	4.32929	3.42781
3585.000	7.04589	4.41590	4.34108	3.41985
3586.000	7.05563	4.43347	4.37056	3.35646
3587.000	6.98552	4.44002	4.29980	3.34887
3588.000	6.98357	4.39685	4.35287	3.37433
3589.000	7.02447	4.40040	4.37056	3.39007
3590.000	7.01863	4.44559	4.34305	3.42182
3591.000	7.09846	4.41932	4.34501	3.37239
3592.000	7.00499	4.43591	4.36074	3.32487
3593.000	7.04978	4.44333	4.29783	3.37062
3594.000	7.08678	4.44691	4.31159	3.38045
3595.000	7.04200	4.44341	4.36663	3.35252
3596.000	7.09846	4.41343	4.32142	3.38436
3597.000	7.05952	4.45502	4.33911	3.42184
3598.000	6.99720	4.41047	4.32535	3.42387
3599.000	7.05173	4.42762	4.30766	3.38442
3600.000	7.07704	4.39794	4.34108	3.38822
3601.000	7.04589	4.42767	4.35681	3.37629
3602.000	7.05173	4.42173	4.34894	3.43365
3603.000	7.03226	4.43173	4.34894	3.43365
3604.000	6.98552	4.41450	4.35877	3.42372
3605.000	7.01863	4.32585	4.34305	3.39810
3606.000	7.02252	4.35919	4.34698	3.38622
3607.000	7.02252	4.37490	4.33518	3.40406
3608.000	7.03226	4.36499	4.34894	3.37040
3609.000	6.98941	4.29667	4.32339	3.42191
3610.000	7.05563	4.41580	4.36467	3.38219
3611.000	7.02447	4.34936	4.30766	3.42395
3612.000	7.00110	4.37313	4.34501	3.43169
3613.000	6.96994	4.33808	4.38432	3.49080
3614.000	7.00499	4.39862	4.40594	3.44130
3615.000	7.01473	4.32393	4.33125	3.43768
3616.000	7.00110	4.39473	4.34698	3.46331
3617.000	7.01863	4.44756	4.34108	3.42578
3618.000	7.03810	4.36886	4.32142	3.50098
3619.000	7.02836	4.33950	4.36074	3.36837
3620.000	7.01278	4.37302	4.38236	3.41571
3621.000	7.05563	4.38047	4.39218	3.42159
3622.000	6.99915	4.32211	4.33518	3.43174
3623.000	7.03421	4.37282	4.29194	3.44972
3624.000	7.01084	4.37893	4.39022	3.44730
3625.000	7.03810	4.39045	4.38039	3.44932
3626.000	6.99136	4.31825	4.36467	3.44939
3627.000	6.99915	4.30836	4.33125	3.44164
3628.000	7.01084	4.31414	4.34698	3.46924
3629.000	6.99136	4.29273	4.34305	3.38624
3630.000	7.00694	4.27295	4.32142	3.40610
3631.000	7.00499	4.36721	4.35287	3.40596
3632.000	7.01473	4.32196	4.32339	3.40412
3633.000	6.97578	4.31447	4.33322	3.41000
3634.000	6.99136	4.30647	4.38432	3.40779
3635.000	7.06926	4.29593	4.38432	3.43151
3636.000	7.03810	4.33156	4.34108	3.37834
3637.000	7.03421	4.27270	4.30963	3.38441
3638.000	7.04784	4.27650	4.36860	3.41973
3639.000	7.00110	4.30049	4.39218	3.39788
3640.000	7.05173	4.30984	4.38825	3.41371
3641.000	7.02836	4.30417	4.38825	3.44731
3642.000	7.01863	4.33960	4.31946	3.42983
3643.000	6.98747	4.35755	4.28407	3.40429
3644.000	7.05563	4.39225	4.37646	3.41178
3645.000	7.05952	4.32547	4.34501	3.40995
3646.000	7.00889	4.30631	4.35484	3.36048
3647.000	6.98941	4.30649	4.34894	3.37435
3648.000	7.04005	4.26283	4.34698	3.34273
3649.000	6.98747	4.33007	4.31749	3.35670
3650.000	6.98747	4.30062	4.34305	3.34472
3651.000	7.01473	4.30036	4.31749	3.36065
3652.000	7.00499	4.29849	4.39612	3.34449
3653.000	7.02642	4.31204	4.36467	3.31893
3654.000	7.04978	4.29611	4.36663	3.39799
3655.000	7.01084	4.28666	4.34108	3.35659
3656.000	6.98747	4.30454	4.35877	3.32488
3657.000	6.99720	4.33390	4.31749	3.33693
3658.000	7.01668	4.29642	4.40987	3.36814
3659.000	6.99915	4.32996	4.36860	3.43356
3660.000	7.02057	4.29442	4.36467	3.37428
3661.000	6.98941	4.32220	4.34501	3.34867
3662.000	6.96020	4.28319	4.37056	3.35844
3663.000	7.08678	4.37429	4.39612	3.40576
3664.000	7.02836	4.32380	4.38629	3.37418
3665.000	6.97383	4.35375	4.39612	3.38402
3666.000	7.02057	4.28460	4.35484	3.40002
3667.000	7.06926	4.28416	4.37646	3.43155
3668.000	7.01668	4.29446	4.36270	3.39010
3669.000	7.04589	4.29026	4.37646	3.42364
3670.000	7.01863	4.32782	4.33911	3.36253
3671.000	7.00889	4.31613	4.39808	3.38006
3672.000	7.01668	4.33961	4.35484	3.44153
3673.000	7.00889	4.21598	4.35681	3.45931
3674.000	6.97383	4.25557	4.36467	3.39998
3675.000	7.00305	4.21407	4.36860	3.44937
3676.000	7.03421	4.27073	4.38432	3.45325
3677.000	7.00305	4.28084	4.35681	3.42769
3678.000	6.98552	4.17887	4.34305	3.52855
3679.000	7.02252	4.20604	4.34108	3.44357
3680.000	7.00889	4.21402	4.35681	3.46919
3681.000	6.97188	4.18489	4.35484	3.42572
3682.000	6.98357	4.20639	4.35484	3.49489
3683.000	6.96799	4.22224	4.37056	3.49087
3684.000	7.01473	4.20022	4.36467	3.46520
3685.000	6.98747	4.26134	4.37450	3.51259
3686.000	6.95630	4.21842	4.43346	3.48860
3687.000	6.97578	4.19467	4.37843	3.52047
3688.000	6.96020	4.19874	4.34698	3.43761
3689.000	6.97773	4.18287	4.36663	3.52843
3690.000	6.93292	4.17148	4.39612	3.47692
3691.000	6.93097	4.22846	4.32929	3.49106
3692.000	6.94071	4.17141	4.34698	3.44354
3693.000	6.93292	4.18327	4.37253	3.41773
3694.000	6.99136	4.20239	4.34108	3.50484
3695.000	6.96604	4.21244	4.37450	3.47504
3696.000	6.95046	4.13990	4.38629	3.44336
3697.000	6.99136	4.21025	4.36270	3.42963
3698.000	6.94656	4.18708	4.37646	3.48096
3699.000	6.95630	4.17520	4.38629	3.43348
3700.000	6.94071	4.18516	4.37253	3.48098
3701.000	6.90954	4.16186	4.38236	3.44733
3702.000	6.96604	4.20851	4.39415	3.39589
3703.000	6.91149	4.12845	4.39612	3.45715
3704.000	6.93877	4.25196	4.37646	3.47898
3705.000	6.88032	4.13068	4.36074	3.45929
3706.000	6.92903	4.14205	4.41577	3.46299
3707.000	6.95240	4.19292	4.40987	3.47487
3708.000	6.94266	4.22050	4.39612	3.48284
3709.000	6.93097	4.11649	4.37056	3.49482
3710.000	6.92318	4.11263	4.40987	3.50254
3711.000	6.91149	4.09112	4.38432	3.48092
3712.000	6.91344	4.16183	4.38432	3.49476
3713.000	6.90759	4.17170	4.39612	3.52039
3714.000	6.95435	4.14772	4.37450	3.45528
3715.000	6.91734	4.11071	4.34894	3.42377
3716.000	6.90175	4.12067	4.38236	3.50267
3717.000	6.92318	4.13031	4.36663	3.49286
3718.000	6.85303	4.18986	4.45114	3.48061
3719.000	6.90954	4.10882	4.39612	3.50063
3720.000	6.88032	4.07566	4.45704	3.52603
3721.000	6.95825	4.14572	4.39218	3.45915
3722.000	6.96214	4.15551	4.45507	3.51616
3723.000	6.91344	4.14415	4.40005	3.50061
3724.000	6.84524	4.12902	4.42756	3.45305
3725.000	6.85303	4.15253	4.43935	3.50635
3726.000	6.95046	4.13793	4.42559	3.50444
3727.000	6.93487	4.09484	4.40398	3.48676
3728.000	6.87642	4.11303	4.42756	3.45898
3729.000	6.89396	4.13842	4.39218	3.48879
3730.000	6.89590	4.16591	4.40398	3.54604
3731.000	6.88226	4.11298	4.39808	3.44924
3732.000	6.93292	4.10665	4.38236	3.45919
3733.000	6.88421	4.07760	4.40201	3.46898
3734.000	6.92123	4.05763	4.41970	3.44518
3735.000	6.83744	4.09961	4.40594	3.49663
3736.000	6.86473	4.12885	4.40791	3.48674
3737.000	6.80626	4.07629	4.40005	3.46899
3738.000	6.86083	4.11513	4.40005	3.43144
3739.000	6.89006	4.11095	4.41577	3.54994
3740.000	6.88032	4.08549	4.39218	3.47693
3741.000	6.84913	4.04448	4.40987	3.44523
3742.000	6.89201	4.05591	4.43346	3.46686
3743.000	6.89980	4.02833	4.39808	3.45517
3744.000	6.89396	4.09323	4.42166	3.43134
3745.000	6.86862	4.06594	4.37253	3.50865
3746.000	6.89201	4.05788	4.44132	3.48658
3747.000	6.90370	4.06367	4.40201	3.49270
3748.000	6.91344	4.00267	4.48848	3.47648
3749.000	6.85108	4.06609	4.46293	3.45289
3750.000	6.87252	4.06590	4.46686	3.47263
3751.000	6.86083	4.10334	4.40398	3.46700
3752.000	6.87837	3.97545	4.40791	3.40571
3753.000	6.88811	4.07167	4.43739	3.43917
3754.000	6.82380	4.00735	4.36663	3.44148
3755.000	6.89785	4.00477	4.41380	3.49264
3756.000	6.90759	4.00272	4.40398	3.44130
3757.000	6.87252	4.00498	4.46490	3.43312
3758.000	6.87057	4.01875	4.45704	3.44896
3759.000	6.83939	3.99346	4.45507	3.45292
3760.000	6.89396	4.01266	4.41577	3.43730
3761.000	6.87057	3.99320	4.40005	3.38796
3762.000	6.86473	4.01684	4.41184	3.38395
3763.000	6.85693	4.04835	4.42953	3.45502
3764.000	6.85888	4.05030	4.43739	3.39372
3765.000	6.87252	4.04625	4.45311	3.41934
3766.000	6.85498	4.05230	4.39612	3.43936
3767.000	6.79846	4.02722	4.41773	3.36020
3768.000	6.85888	4.02082	4.42166	3.39379
3769.000	6.88226	4.08940	4.42559	3.34831
3770.000	6.86473	4.08562	4.40791	3.43140
3771.000	6.91734	4.07928	4.41577	3.41358
3772.000	6.89006	4.05396	4.42166	3.34239
3773.000	6.87837	4.04817	4.47079	3.43704
3774.000	6.91734	4.06945	4.40987	3.36221
3775.000	6.91734	4.03998	4.44132	3.27707
3776.000	6.84913	4.03466	4.41773	3.33846
3777.000	6.84134	4.05634	4.44918	3.34425
3778.000	6.85498	4.08178	4.43149	3.35816
3779.000	6.86473	4.07383	4.49044	3.32627
3780.000	6.85693	4.04049	4.46490	3.40347
3781.000	6.90759	4.06364	4.48651	3.34210
3782.000	6.92123	4.05370	4.46293	3.40941
3783.000	6.89785	4.06962	4.46097	3.31454
3784.000	6.85693	4.07586	4.41380	3.38196
3785.000	6.82965	4.03286	4.44328	3.37195
3786.000	6.86667	4.12491	4.42559	3.36214
3787.000	6.83159	4.09573	4.47276	3.38169
3788.000	6.90565	4.15993	4.42953	3.34038
3789.000	6.84524	4.09169	4.47276	3.37576
3790.000	6.83939	4.09174	4.48062	3.39352
3791.000	6.85888	4.09353	4.40398	3.35631
3792.000	6.85693	4.06800	4.44525	3.42926
3793.000	6.85693	4.08176	4.44721	3.47272
3794.000	6.91734	4.14411	4.46490	3.39359
3795.000	6.91734	4.09500	4.43149	3.35816
3796.000	6.91539	4.10484	4.42363	3.38390
3797.000	6.87252	4.06197	4.43739	3.41743
3798.000	6.87837	4.12874	4.47865	3.47060
3799.000	6.86667	4.11312	4.45900	3.43907
3800.000	6.88616	4.10312	4.49241	3.47053
3801.000	6.85108	4.11522	4.47276	3.46865
3802.000	6.83159	4.09966	4.48455	3.45476
3803.000	6.85303	4.04642	4.46293	3.45486
3804.000	6.88226	4.08351	4.49634	3.46854
3805.000	6.81990	4.03294	4.46686	3.46670
3806.000	6.82380	4.03094	4.45900	3.45884
3807.000	6.83354	4.01710	4.41184	3.49660
3808.000	6.82965	4.03089	4.45900	3.48848
3809.000	6.85888	4.06799	4.45704	3.54381
3810.000	6.86278	4.02275	4.48848	3.41720
3811.000	6.80431	4.03307	4.47276	3.49039
3812.000	6.81795	4.01330	4.49241	3.48041
3813.000	6.86862	4.00501	4.48651	3.39744
3814.000	6.84134	3.98951	4.46097	3.45487
3815.000	6.82965	4.02696	4.49044	3.45869
3816.000	6.81990	4.00542	4.42953	3.43526
3817.000	6.84913	4.02876	4.44525	3.46680
3818.000	6.83939	3.98363	4.47865	3.44689
3819.000	6.81405	4.00350	4.45704	3.43315
3820.000	6.85693	4.00707	4.47079	3.42321
3821.000	6.86083	3.98935	4.49044	3.41323
3822.000	6.77896	4.03131	4.46490	3.43114
3823.000	6.81210	3.96617	4.47865	3.38760
3824.000	6.84329	3.97967	4.46686	3.43508
3825.000	6.83744	4.01707	4.43739	3.43324
3826.000	6.82185	3.98771	4.50420	3.40526
3827.000	6.84134	3.97969	4.48062	3.38759
3828.000	6.83744	4.02886	4.46097	3.34815
3829.000	6.89785	3.95366	4.46686	3.41334
3830.000	6.84329	3.98753	4.50813	3.36770
3831.000	6.82965	3.96799	4.44132	3.35219
3832.000	6.81990	4.01525	4.42363	3.46691
3833.000	6.79846	3.97218	4.51402	3.41115
3834.000	6.79846	4.02525	4.47865	3.41329
3835.000	6.77507	3.91928	4.53563	3.44266
3836.000	6.81015	3.93079	4.48651	3.42906
3837.000	6.77117	3.95077	4.50420	3.43886
3838.000	6.78286	3.94085	4.52384	3.42691
3839.000	6.78871	3.93294	4.50420	3.41317
3840.000	6.75557	3.89388	4.53367	3.42884
3841.000	6.78676	3.90936	4.51402	3.44869
3842.000	6.77312	3.93896	4.51991	3.40124
3843.000	6.79261	3.96633	4.48258	3.45872
3844.000	6.80041	3.88565	4.50027	3.43493
3845.000	6.79846	3.94858	4.48848	3.43893
3846.000	6.75947	3.95873	4.47865	3.44886
3847.000	6.76142	3.89580	4.51402	3.43091
3848.000	6.72242	3.89611	4.49830	3.43889
3849.000	6.76727	3.90165	4.50616	3.49813
3850.000	6.78676	3.88969	4.49044	3.40928
3851.000	6.71852	3.89811	4.53563	3.41302
3852.000	6.73997	3.91367	4.56903	3.38915
3853.000	6.72437	3.87053	4.54349	3.42089
3854.000	6.73607	3.87043	4.58278	3.36537
3855.000	6.77702	3.91533	4.56903	3.44843
3856.000	6.74777	3.88607	4.53170	3.38933
3857.000	6.70292	3.87463	4.55921	3.43070
3858.000	6.75167	3.88801	4.54545	3.32602
3859.000	6.74582	3.85855	4.56117	3.33187
3860.000	6.71657	3.89615	4.55528	3.33981
3861.000	6.72242	3.87841	4.55528	3.39514
3862.000	6.73997	3.92153	4.57099	3.33381
3863.000	6.74972	3.95881	4.58278	3.35549
3864.000	6.70877	3.91392	4.56706	3.35754
3865.000	6.75362	3.98434	4.55135	3.39714
3866.000	6.75167	3.91161	4.56903	3.38125
3867.000	6.71462	3.94730	4.58867	3.35941
3868.000	6.73802	3.92745	4.55724	3.37340
3869.000	6.69512	3.90223	4.56314	3.36546
3870.000	6.68342	3.93575	4.58474	3.38512
3871.000	6.68342	3.93969	4.57492	3.39703
3872.000	6.69317	3.93961	4.56117	3.41290
3873.000	6.72047	3.95905	4.52974	3.40910
3874.000	6.66977	3.95160	4.55528	3.36748
3875.000	6.74192	3.90382	4.49044	3.38754
3876.000	6.65612	3.91630	4.52974	3.38934
3877.000	6.71462	3.96303	4.53760	3.43277
3878.000	6.70877	3.94342	4.54742	3.41494
3879.000	6.70292	3.92970	4.49241	3.48437
3880.000	6.69317	3.96714	4.56903	3.39508
3881.000	6.72242	3.95510	4.58474	3.45033
3882.000	6.71462	3.86077	4.53170	3.38933
3883.000	6.70487	3.92181	4.55331	3.42677
3884.000	6.63661	3.95383	4.50027	3.42109
3885.000	6.67367	3.92403	4.57492	3.39308
3886.000	6.66392	3.88281	4.58278	3.44244
3887.000	6.67562	3.87288	4.54349	3.42879
3888.000	6.66977	3.92800	4.53956	3.42288
3889.000	6.70097	3.86874	4.49830	3.43494
3890.000	6.67757	3.89253	4.54938	3.45643
3891.000	6.65417	3.91239	4.59064	3.43845
3892.000	6.68537	3.90820	4.59849	3.42063
3893.000	6.66977	3.89259	4.55724	3.44651
3894.000	6.68732	3.91016	4.59457	3.48783
3895.000	6.68732	3.89049	4.51991	3.45064
3896.000	6.65027	3.92225	4.54938	3.42481
3897.000	6.64637	3.89475	4.57296	3.42075
3898.000	6.74972	3.91752	4.53956	3.38929
3899.000	6.68732	3.87082	4.58474	3.35548
3900.000	6.68342	3.90625	4.56510	3.42869
3901.000	6.68147	3.92790	4.59653	3.44040
3902.000	6.70097	3.92971	4.51402	3.40720
3903.000	6.68732	3.91016	4.54938	3.42679
3904.000	6.72827	3.89213	4.59653	3.45818
3905.000	6.69512	3.85896	4.55724	3.43070
3906.000	6.67952	3.88858	4.61617	3.40276
3907.000	6.71072	3.88440	4.56903	3.47214
3908.000	6.67367	3.89060	4.62403	3.41063
3909.000	6.67952	3.83547	4.61421	3.53119
3910.000	6.71267	3.88439	4.57296	3.42075
3911.000	6.67172	3.90045	4.59653	3.43447
3912.000	6.65027	3.92815	4.54153	3.39916
3913.000	6.64637	3.87901	4.55528	3.43862
3914.000	6.65807	3.87498	4.58278	3.44244
3915.000	6.67952	3.84728	4.56314	3.40894
3916.000	6.69707	3.89238	4.62207	3.40076
3917.000	6.64637	3.91245	4.57296	3.43656
3918.000	6.71072	3.90800	4.55331	3.40899
3919.000	6.66977	3.88473	4.60046	3.42062
3920.000	6.71657	3.88239	4.55921	3.42872
3921.000	6.69902	3.88449	4.59457	3.39298
3922.000	6.68537	3.95540	4.60046	3.36331
3923.000	6.70292	3.87463	4.55724	3.40106
3924.000	6.66392	3.91821	4.55724	3.42280
3925.000	6.73217	3.87833	4.53956	3.36360
3926.000	6.66782	3.90638	4.56117	3.43464
3927.000	6.69122	3.85309	4.58867	3.42660
3928.000	6.63466	3.90271	4.55921	3.44058
3929.000	6.65807	3.90449	4.63974	3.39079
3930.000	6.65612	3.85533	4.55724	3.42478
3931.000	6.70292	3.83923	4.55528	3.43664
3932.000	6.63466	3.84566	4.58671	3.41476
3933.000	6.69317	3.81963	4.59260	3.41868
3934.000	6.67172	3.84930	4.61617	3.42252
3935.000	6.65417	3.79436	4.60439	3.44826
3936.000	6.70682	3.78018	4.59064	3.43647
3937.000	6.70292	3.79005	4.53956	3.49600
3938.000	6.65222	3.82388	4.60242	3.40875
3939.000	6.67952	3.81384	4.59457	3.41077
3940.000	6.65807	3.79039	4.54938	3.44457
3941.000	6.63856	3.84760	4.58867	3.36930
3942.000	6.66002	3.82186	4.55724	3.45046
3943.000	6.65807	3.75104	4.56117	3.42476
3944.000	6.62101	3.81035	4.61421	3.40474
3945.000	6.58784	3.75748	4.58082	3.39898
3946.000	6.70097	3.79990	4.64171	3.40264
3947.000	6.66392	3.78445	4.58474	3.39303
3948.000	6.67562	3.81387	4.55921	3.41884
3949.000	6.62296	3.79853	4.60439	3.45617
3950.000	6.65027	3.71175	4.61224	3.40080
3951.000	6.66782	3.75884	4.56117	3.41488
3952.000	6.64246	3.73739	4.59849	3.39889
3953.000	6.66977	3.75292	4.58278	3.37920
3954.000	6.64637	3.75900	4.61224	3.43637
3955.000	6.67172	3.78045	4.60242	3.36726
3956.000	6.66392	3.76477	4.53170	3.32213
3957.000	6.65807	3.78252	4.54938	3.37146
3958.000	6.69512	3.73699	4.53956	3.39917
3959.000	6.65027	3.74323	4.54742	3.42680
3960.000	6.67757	3.73516	4.54545	3.44855
3961.000	6.67562	3.77649	4.56903	3.42274
3962.000	6.63076	3.78864	4.60832	3.37908
3963.000	6.68537	3.75084	4.61224	3.40080
3964.000	6.65612	3.77664	4.58474	3.40884
3965.000	6.65807	3.79826	4.54938	3.40308
3966.000	6.63661	3.80630	4.60439	3.41467
3967.000	6.64441	3.79640	4.59457	3.33567
3968.000	6.65222	3.71764	4.54938	3.39715
3969.000	6.66587	3.76279	4.60242	3.42851
3970.000	6.65807	3.78646	4.56314	3.41092
3971.000	6.62881	3.78865	4.55724	3.44454
3972.000	6.65807	3.80220	4.58474	3.37129
3973.000	6.67172	3.76078	4.56117	3.34373
3974.000	6.63856	3.76300	4.55331	3.39515
3975.000	6.65417	3.75894	4.59849	3.36332
3976.000	6.64051	3.75511	4.58474	3.37129
3977.000	6.65612	3.73729	4.63385	3.38291
3978.000	6.70487	3.72314	4.60439	3.35934
3979.000	6.62101	3.75526	4.61421	3.37708
3980.000	6.66587	3.77066	4.58278	3.35944
3981.000	6.65612	3.76287	4.56117	3.36943
3982.000	6.65027	3.75897	4.59653	3.31195
3983.000	6.64441	3.74918	4.55135	3.32797
3984.000	6.66977	3.80408	4.56314	3.32989
3985.000	6.65807	3.75892	4.61028	3.42452
3986.000	6.66197	3.79627	4.54545	3.35566
3987.000	6.65612	3.80615	4.52581	3.39331
3988.000	6.66197	3.81987	4.54349	3.35567
3989.000	6.75557	3.81914	4.56314	3.36546
3990.000	6.62101	3.77297	4.54153	3.35173
3991.000	6.70877	3.78607	4.55331	3.32598
3992.000	6.65612	3.75303	4.59653	3.29811
3993.000	6.68732	3.75672	4.58671	3.31397
3994.000	6.63076	3.74338	4.57492	3.32588
3995.000	6.63466	3.74532	4.53367	3.24700
3996.000	6.59174	3.74171	4.54153	3.27662
3997.000	6.66587	3.75886	4.61421	3.29803
3998.000	6.62491	3.78475	4.63385	3.28410
3999.000	6.66002	3.75693	4.57492	3.26263
4000.000	6.66587	3.80017	4.52777	3.36563
4001.000	6.61906	3.79266	4.51795	3.27673
4002.000	6.66782	3.81589	4.57099	3.25870
4003.000	6.61125	3.78288	4.55135	3.30623
4004.000	6.65807	3.81597	4.52188	3.30043
4005.000	6.65612	3.80025	4.60439	3.23878
4006.000	6.62101	3.81429	4.56117	3.28246
4007.000	6.68342	3.84331	4.60242	3.27041
4008.000	6.67172	3.80209	4.53563	3.29048
4009.000	6.68342	3.76659	4.57492	3.29426
4010.000	6.64051	3.79053	4.57099	3.23300
4011.000	6.67952	3.81974	4.58082	3.24679
4012.000	6.65222	3.78650	4.61224	3.29013
4013.000	6.66392	3.79822	4.57689	3.28041
4014.000	6.60735	3.82226	4.59260	3.26453
4015.000	6.67367	3.77847	4.55921	3.30619
4016.000	6.63661	3.81023	4.57689	3.27251
4017.000	6.62881	3.80636	4.58082	3.25667
4018.000	6.63661	3.84171	4.54938	3.24891
4019.000	6.66392	3.80806	4.55331	3.23308
4020.000	6.66587	3.82181	4.57492	3.21321
4021.000	6.63661	3.74924	4.60439	3.28622
4022.000	6.67172	3.77258	4.54742	3.22322
4023.000	6.69902	3.79401	4.59064	3.26849
4024.000	6.66197	3.75495	4.61421	3.21897
4025.000	6.64441	3.76689	4.52777	3.25494
4026.000	6.66587	3.79427	4.57689	3.25867
4027.000	6.63466	3.76500	4.57099	3.26067
4028.000	6.63856	3.79645	4.58867	3.29617
4029.000	6.61125	3.76321	4.55921	3.25084
4030.000	6.65222	3.79437	4.56510	3.25872
4031.000	6.63271	3.77878	4.58867	3.28629
4032.000	6.63271	3.82010	4.58082	3.30609
4033.000	6.63856	3.74136	4.58082	3.27842
4034.000	6.61320	3.78090	4.62010	3.24464
4035.000	6.65612	3.76877	4.56903	3.27847
4036.000	6.65612	3.81598	4.55921	3.24491
4037.000	6.62686	3.78080	4.54349	3.21533
4038.000	6.66002	3.73922	4.58671	3.23688
4039.000	6.62491	3.72375	4.55528	3.27458
4040.000	6.62101	3.74739	4.56510	3.27849
4041.000	6.63661	3.77482	4.54742	3.22717
4042.000	6.59565	3.81645	4.60635	3.25458
4043.000	6.60150	3.72196	4.52777	3.32215
4044.000	6.59174	3.71022	4.56117	3.28839
4045.000	6.67172	3.72536	4.57689	3.24879
4046.000	6.62491	3.81819	4.58671	3.25862
4047.000	6.66392	3.76871	4.63385	3.34142
4048.000	6.63661	3.76498	4.60635	3.30992
4049.000	6.60540	3.72783	4.56510	3.31407
4050.000	6.60930	3.68057	4.60439	3.27238
4051.000	6.59760	3.75150	4.61028	3.20910
4052.000	6.66002	3.73726	4.60046	3.27042
4053.000	6.63661	3.79253	4.56903	3.28045
4054.000	6.60345	3.72391	4.61224	3.26839
4055.000	6.64832	3.72160	4.63385	3.22481
4056.000	6.62881	3.66665	4.63581	3.27224
4057.000	6.65222	3.74125	4.63189	3.26830
4058.000	6.57419	3.74184	4.63974	3.18722
4059.000	6.61711	3.68445	4.60242	3.26844
4060.000	6.63466	3.72564	4.65349	3.23855
4061.000	6.61516	3.71201	4.61814	3.17941
4062.000	6.57028	3.67102	4.61617	3.23872
4063.000	6.60540	3.68257	4.63581	3.20701
4064.000	6.60150	3.68850	4.61028	3.23084
4065.000	6.60150	3.65898	4.57885	3.25273
4066.000	6.63271	3.72369	4.61617	3.25454
4067.000	6.60540	3.69044	4.59457	3.27243
4068.000	6.59565	3.66493	4.62403	3.27031
4069.000	6.59370	3.62557	4.67902	3.22460
4070.000	6.58199	3.69455	4.64367	3.21686
4071.000	6.55858	3.68685	4.61224	3.24072
4072.000	6.58004	3.64929	4.68491	3.23050
4073.000	6.58394	3.66304	4.60046	3.22298
4074.000	6.57419	3.61391	4.62599	3.26635
4075.000	6.57223	3.62573	4.61224	3.22688
4076.000	6.62686	3.67257	4.64563	3.20894
4077.000	6.58589	3.61579	4.63974	3.25443
4078.000	6.55077	3.61604	4.66331	3.26025
4079.000	6.64246	3.58192	4.64760	3.22870
4080.000	6.60930	3.61168	4.62010	3.23871
4081.000	6.57809	3.59026	4.65742	3.19505
4082.000	6.57419	3.60603	4.66135	3.23654
4083.000	6.64441	3.65079	4.63974	3.26233
4084.000	6.59760	3.61177	4.63974	3.23466
4085.000	6.58004	3.60796	4.65938	3.27806
4086.000	6.59174	3.60787	4.57885	3.21517
4087.000	6.56638	3.62184	4.64367	3.21686
4088.000	6.56053	3.59826	4.63581	3.24654
4089.000	6.57809	3.67490	4.62599	3.28216
4090.000	6.56833	3.67300	4.67313	3.18509
4091.000	6.59565	3.60981	4.62599	3.26437
4092.000	6.54297	3.65547	4.61224	3.25653
4093.000	6.54102	3.62005	4.59849	3.23090
4094.000	6.55858	3.60024	4.59653	3.21312
4095.000	6.57809	3.63553	4.66724	3.19501
4096.000	6.54492	3.59246	4.65349	3.17728
4097.000	6.53516	3.62797	4.60439	3.27633
4098.000	6.56443	3.62776	4.63189	3.29004
4099.000	6.60345	3.57236	4.67117	3.18313
4100.000	6.57223	3.58045	4.62010	3.24464
4101.000	6.55467	3.65342	4.62403	3.20904
4102.000	6.55272	3.69477	4.65545	3.18913
4103.000	6.55663	3.65340	4.67509	3.16334
4104.000	6.54492	3.61215	4.67313	3.23649
4105.000	6.51760	3.66550	4.64367	3.21883
4106.000	6.58394	3.71422	4.62207	3.19521
4107.000	6.54687	3.64166	4.60832	3.20318
4108.000	6.53516	3.68112	4.66724	3.13175
4109.000	6.57419	3.66705	4.65349	3.18321
4110.000	6.56833	3.66316	4.64956	3.17927
4111.000	6.57809	3.64340	4.62599	3.28216
4112.000	6.49418	3.64401	4.64367	3.22081
4113.000	6.52540	3.64576	4.64367	3.22476
4114.000	6.54882	3.59834	4.61421	3.22292
4115.000	6.58004	3.64339	4.65938	3.20690
4116.000	6.53906	3.62400	4.62207	3.26044
4117.000	6.57809	3.63750	4.63385	3.21097
4118.000	6.50199	3.63805	4.64171	3.22082
4119.000	6.56833	3.61789	4.66527	3.22071
4120.000	6.55858	3.63174	4.62010	3.20510
4121.000	6.55077	3.62589	4.66724	3.21675
4122.000	6.58199	3.63353	4.59653	3.21707
4123.000	6.53126	3.64571	4.60439	3.24075
4124.000	6.54492	3.61806	4.64760	3.24056
4125.000	6.56053	3.60022	4.62599	3.25449
4126.000	6.57809	3.60404	4.65349	3.18914
4127.000	6.55077	3.60620	4.61421	3.30001
4128.000	6.55663	3.61600	4.64563	3.19906
4129.000	6.53516	3.62206	4.60635	3.23284
4130.000	6.56053	3.61007	4.63189	3.25644
4131.000	6.53711	3.58661	4.62403	3.19915
4132.000	6.57223	3.59423	4.64171	3.18919
4133.000	6.57419	3.60603	4.65938	3.22667
4134.000	6.55077	3.62195	4.64956	3.22869
4135.000	6.61125	3.59002	4.63974	3.18327
4136.000	6.56443	3.61791	4.59457	3.21905
4137.000	6.57614	3.61389	4.69473	3.21662
4138.000	6.52150	3.63397	4.64563	3.22673
4139.000	6.51565	3.56708	4.66920	3.23255
4140.000	6.49418	3.56920	4.60832	3.24271
4141.000	6.48637	3.57122	4.60832	3.21504
4142.000	6.55077	3.55895	4.65938	3.18911
4143.000	6.55272	3.59044	4.66920	3.13569
4144.000	6.52150	3.60444	4.70062	3.19683
4145.000	6.56248	3.58249	4.67313	3.22067
4146.000	6.55663	3.59828	4.62403	3.24066
4147.000	6.52736	3.58865	4.63189	3.23075
4148.000	6.56833	3.58245	4.67509	3.20288
4149.000	6.54882	3.58259	4.64367	3.17337
4150.000	6.56833	3.59623	4.67902	3.19495
4151.000	6.50784	3.53957	4.63189	3.18133
4152.000	6.57223	3.60998	4.62010	3.19719
4153.000	6.52345	3.59065	4.67117	3.21673
4154.000	6.57614	3.57255	4.69277	3.11582
4155.000	6.50003	3.61444	4.65545	3.16936
4156.000	6.58199	3.61779	4.61421	3.17152
4157.000	6.55663	3.55103	4.68099	3.16332
4158.000	6.50003	3.56128	4.63581	3.21096
4159.000	6.53711	3.53936	4.65742	3.16737
4160.000	6.51369	3.55134	4.66135	3.15747
4161.000	6.54882	3.54321	4.64171	3.23465
4162.000	6.52150	3.55325	4.64563	3.24650
4163.000	6.46685	3.58121	4.63778	3.20502
4164.000	6.51565	3.60448	4.67117	3.21278
4165.000	6.51760	3.54147	4.63189	3.20900
4166.000	6.50003	3.51993	4.66331	3.24641
4167.000	6.46100	3.52020	4.62207	3.28416
4168.000	6.51174	3.57301	4.66920	3.22267
4169.000	6.47856	3.56537	4.66724	3.18512
4170.000	6.51369	3.55331	4.63189	3.21296
4171.000	6.49027	3.57316	4.61617	3.17942
4172.000	6.53321	3.54726	4.66135	3.21085
4173.000	6.50394	3.59866	4.67706	3.19891
4174.000	6.46490	3.53199	4.67902	3.24832
4175.000	6.52736	3.57881	4.65545	3.21878
4176.000	6.53126	3.55515	4.67313	3.17521
4177.000	6.48247	3.52793	4.62992	3.23866
4178.000	6.49418	3.53572	4.66135	3.19306
4179.000	6.44928	3.51634	4.69277	3.14745
4180.000	6.53711	3.52755	4.70455	3.14146
4181.000	6.54492	3.49795	4.65349	3.20100
4182.000	6.49418	3.56329	4.71241	3.16515
4183.000	6.49808	3.59083	4.66135	3.22666
4184.000	6.44733	3.50454	4.70259	3.23437
4185.000	6.46685	3.49850	4.70651	3.16913
4186.000	6.45319	3.54586	4.71044	3.21062
4187.000	6.42391	3.44364	4.66527	3.17525
4188.000	6.44733	3.48091	4.69473	3.16128
4189.000	6.45905	3.54778	4.71044	3.17900
4190.000	6.45709	3.44539	4.73793	3.12945
4191.000	6.43562	3.45932	4.69670	3.18894
4192.000	6.44343	3.45730	4.72615	3.20462
4193.000	6.44538	3.42971	4.71437	3.14735
4194.000	6.44538	3.36864	4.70848	3.15726
4195.000	6.42000	3.41215	4.75364	3.19461
4196.000	6.41805	3.48898	4.70848	3.10784
4197.000	6.41610	3.43384	4.74186	3.16304
4198.000	6.45709	3.49266	4.73204	3.17890
4199.000	6.49613	3.46481	4.72615	3.11765
4200.000	6.44538	3.43956	4.74579	3.14918
4201.000	6.46295	3.46110	4.76935	3.13129
4202.000	6.41415	3.40234	4.77131	3.08779
4203.000	6.47271	3.39801	4.78309	3.16285
4204.000	6.41415	3.45750	4.73400	3.08796
4205.000	6.47271	3.43149	4.70848	3.15726
4206.000	6.42976	3.45936	4.70848	3.23632
4207.000	6.44343	3.43169	4.76542	3.21629
4208.000	6.42000	3.50867	4.73400	3.18877
4209.000	6.45905	3.45916	4.76935	3.11943
4210.000	6.42391	3.45349	4.76738	3.14316
4211.000	6.44538	3.45531	4.69473	3.19488
4212.000	6.44538	3.44940	4.74971	3.16103
4213.000	6.44343	3.42184	4.75953	3.14122
4214.000	6.47466	3.47284	4.68295	3.12575
4215.000	6.43562	3.51250	4.81254	3.15481
4216.000	6.37510	3.45185	4.70848	3.22446
4217.000	6.41219	3.44963	4.73008	3.13542
4218.000	6.46880	3.50833	4.73400	3.17493
4219.000	6.46100	3.48475	4.76738	3.14711
4220.000	6.47856	3.47281	4.74775	3.19661
4221.000	6.42391	3.48304	4.75168	3.17090
4222.000	6.40634	3.43785	4.73400	3.15517
4223.000	6.43757	3.49476	4.73990	3.15712
4224.000	6.44148	3.49473	4.74186	3.18083
4225.000	6.39853	3.47533	4.73990	3.13537
4226.000	6.40634	3.46543	4.69866	3.21067
4227.000	6.41610	3.47718	4.78113	3.14309
4228.000	6.47076	3.49059	4.76346	3.16096
4229.000	6.44733	3.48288	4.72222	3.16115
4230.000	6.43172	3.45935	4.75560	3.08984
4231.000	6.43172	3.49283	4.76346	3.12538
4232.000	6.46295	3.47292	4.75953	3.07005
4233.000	6.41024	3.48510	4.76149	3.10958
4234.000	6.43952	3.48293	4.76346	3.09969
4235.000	6.42195	3.44759	4.78505	3.10947
4236.000	6.40634	3.52058	4.74775	3.18871
4237.000	6.37510	3.51094	4.71437	3.14340
4238.000	6.43562	3.49674	4.77916	3.04427
4239.000	6.40438	3.49893	4.79683	3.11930
4240.000	6.40243	3.47530	4.76542	3.10759
4241.000	6.36143	3.56619	4.69866	3.16521
4242.000	6.35166	3.45989	4.74775	3.13534
4243.000	6.30089	3.49766	4.74971	3.14324
4244.000	6.39462	3.49899	4.74382	3.11757
4245.000	6.40243	3.49106	4.72615	3.15718
4246.000	6.38681	3.48329	4.78505	3.15493
4247.000	6.39072	3.51478	4.72811	3.13543
4248.000	6.40829	3.47132	4.72026	3.11767
4249.000	6.39657	3.48913	4.70455	3.15728
4250.000	6.40243	3.46939	4.74382	3.15710
4251.000	6.44928	3.44938	4.73793	3.14329
4252.000	6.41415	3.44765	4.73400	3.15121
4253.000	6.42586	3.40029	4.73008	3.18484
4254.000	6.36924	3.45780	4.73400	3.12552
4255.000	6.40634	3.48512	4.70062	3.15334
4256.000	6.39657	3.45761	4.70259	3.10194
4257.000	6.42000	3.48109	4.73793	3.13538
4258.000	6.40438	3.42210	4.69080	3.12373
4259.000	6.39462	3.47142	4.74186	3.15909
4260.000	6.42391	3.48894	4.68884	3.13560
4261.000	6.41415	3.38855	4.74186	3.13141
4262.000	6.36924	3.46568	4.76935	3.15501
4263.000	6.40438	3.43786	4.73597	3.07016
4264.000	6.36338	3.36918	4.74186	3.13537
4265.000	6.42195	3.45744	4.69473	3.16918
4266.000	6.42391	3.41409	4.75560	3.12740
4267.000	6.38095	3.44984	4.72419	3.10777
4268.000	6.40048	3.46547	4.73008	3.17298
4269.000	6.44148	3.43958	4.73990	3.13142
4270.000	6.42000	3.51655	4.76149	3.10958
4271.000	6.38681	3.46556	4.74971	3.14917
4272.000	6.36924	3.47159	4.70848	3.20075
4273.000	6.39462	3.48520	4.74579	3.27567
4274.000	6.39853	3.45957	4.71633	3.20862
4275.000	6.39462	3.45566	4.72419	3.22044
4276.000	6.34971	3.46187	4.73597	3.15516
4277.000	6.40243	3.46939	4.79683	3.15290
4278.000	6.40829	3.48511	4.71241	3.11771
4279.000	6.38486	3.48133	4.75168	3.17288
4280.000	6.33213	3.43243	4.74186	3.17885
4281.000	6.37705	3.46957	4.75560	3.11751
4282.000	6.38486	3.41238	4.72811	3.15717
4283.000	6.36924	3.41446	4.74579	3.11953
4284.000	6.36729	3.49721	4.78113	3.18855
4285.000	6.36338	3.42632	4.76542	3.15502
4286.000	6.33995	3.40480	4.76738	3.12141
4287.000	6.37705	3.43805	4.74186	3.13141
4288.000	6.35166	3.43822	4.72811	3.18880
4289.000	6.37900	3.48137	4.76935	3.15303
4290.000	6.31260	3.46803	4.73990	3.16305
4291.000	6.29698	3.42282	4.76935	3.10361
4292.000	6.38486	3.43996	4.75560	3.19065
4293.000	6.33213	3.46199	4.77131	3.15500
4294.000	6.30479	3.41685	4.77720	3.13521
4295.000	6.32042	3.46798	4.73008	3.15321
4296.000	6.30674	3.42866	4.71633	3.17304
4297.000	6.34580	3.41067	4.75560	3.16298
4298.000	6.37510	3.42821	4.76149	3.13528
4299.000	6.31846	3.42464	4.79291	3.15885
4300.000	6.29112	3.43468	4.79291	3.19443
4301.000	6.29698	3.43267	4.77524	3.20834
4302.000	6.35166	3.43625	4.82039	3.13896
4303.000	6.35362	3.41850	4.79291	3.15687
4304.000	6.38291	3.41240	4.76149	3.16295
4305.000	6.31456	3.34388	4.84002	3.13887
4306.000	6.32823	3.37729	4.80272	3.12323
4307.000	6.30284	3.44445	4.78898	3.18456
4308.000	6.33018	3.40486	4.81057	3.18446
4309.000	6.35947	3.46968	4.76149	3.17481
4310.000	6.28721	3.36376	4.78505	3.17272
4311.000	6.30284	3.43854	4.80468	3.13310
4312.000	6.32432	3.39702	4.76542	3.21037
4313.000	6.31651	3.40495	4.76149	3.23805
4314.000	6.32237	3.43250	4.79683	3.16674
4315.000	6.33409	3.44818	4.81057	3.16075
4316.000	6.35362	3.37713	4.81843	3.18640
4317.000	6.32237	3.40492	4.84198	3.14479
4318.000	6.35166	3.38699	4.83609	3.16656
4319.000	6.30284	3.40504	4.80861	3.19435
4320.000	6.33799	3.39496	4.79094	3.16281
4321.000	6.33799	3.41466	4.84787	3.25740
4322.000	6.27549	3.38946	4.78113	3.18658
4323.000	6.28331	3.40123	4.74579	3.21441
4324.000	6.31260	3.40892	4.84395	3.18628
4325.000	6.26768	3.41316	4.82432	3.12906
4326.000	6.28721	3.37756	4.85180	3.13091
4327.000	6.31065	3.41878	4.79683	3.24184
4328.000	6.30674	3.36561	4.82432	3.15673
4329.000	6.30089	3.37353	4.84787	3.16650
4330.000	6.26768	3.38951	4.78702	3.22805
4331.000	6.31456	3.36359	4.83806	3.17248
4332.000	6.26963	3.33431	4.77524	3.15300
4333.000	6.26768	3.40921	4.80272	3.19438
4334.000	6.26377	3.40530	4.78898	3.21223
4335.000	6.26377	3.32647	4.83413	3.15866
4336.000	6.27940	3.36973	4.80076	3.12521
4337.000	6.29893	3.38142	4.81254	3.12318
4338.000	6.25987	3.33635	4.80468	3.22401
4339.000	6.28331	3.37561	4.82824	3.14288
4340.000	6.24814	3.38175	4.79291	3.13711
4341.000	6.29503	3.42086	4.85769	3.14076
4342.000	6.29307	3.36767	4.79683	3.21417
4343.000	6.29112	3.39133	4.84591	3.15861
4344.000	6.23251	3.39368	4.82039	3.20418
4345.000	6.30284	3.37549	4.83020	3.13299
4346.000	6.29307	3.40708	4.92834	3.13055
4347.000	6.25010	3.34232	4.80861	3.14494
4348.000	6.27354	3.39538	4.79291	3.14699
4349.000	6.29307	3.37161	4.82824	3.16066
4350.000	6.26573	3.35208	4.80076	3.25368
4351.000	6.23251	3.40747	4.82628	3.17846
4352.000	6.23642	3.36015	4.84198	3.18036
4353.000	6.23642	3.43504	4.79487	3.19639
4354.000	6.26768	3.39345	4.91264	3.18596
4355.000	6.27159	3.41116	4.78309	3.19250
4356.000	6.24619	3.40147	4.85180	3.15660
4357.000	6.25205	3.38961	4.82235	3.12314
4358.000	6.25987	3.36394	4.81057	3.17063
4359.000	6.23251	3.35820	4.84198	3.18036
4360.000	6.23642	3.37789	4.82824	3.11916
4361.000	6.25205	3.37384	4.77916	3.15299
4362.000	6.23447	3.39564	4.81057	3.14098
4363.000	6.21298	3.41154	4.80076	3.15882
4364.000	6.22275	3.35826	4.84002	3.20804
4365.000	6.25205	3.43493	4.80665	3.14693
4366.000	6.20907	3.39777	4.86750	3.11305
4367.000	6.21884	3.39179	4.87535	3.16242
4368.000	6.25987	3.37576	4.82628	3.22589
4369.000	6.24814	3.38963	4.81057	3.17260
4370.000	6.23251	3.35229	4.80468	3.20821
4371.000	6.24619	3.41132	4.84198	3.20012
4372.000	6.25010	3.36794	4.79487	3.16675
4373.000	6.20907	3.41945	4.81254	3.15283
4374.000	6.26182	3.39349	4.83806	3.22386
4375.000	6.22861	3.37399	4.83020	3.20216
4376.000	6.24424	3.34630	4.84198	3.13293
4377.000	6.21688	3.41151	4.82628	3.13696
4378.000	6.25400	3.37186	4.78898	3.27152
4379.000	6.20712	3.38793	4.83217	3.15669
4380.000	6.23642	3.33453	4.83217	3.19819
4381.000	6.21102	3.40564	4.83020	3.19228
4382.000	6.23838	3.41926	4.81254	3.11330
4383.000	6.20125	3.40964	4.86554	3.24941
4384.000	6.19735	3.39785	4.83020	3.26737
4385.000	6.25205	3.37976	4.82235	3.22393
4386.000	6.22275	3.41936	4.79683	3.26950
4387.000	6.20516	3.37612	4.80861	3.24969
4388.000	6.21298	3.38986	4.83020	3.23575
4389.000	6.20516	3.38794	4.86357	3.23362
4390.000	6.17781	3.35855	4.83020	3.27132
4391.000	6.22665	3.34247	4.82235	3.22196
4392.000	6.20516	3.30121	4.83413	3.21004
4393.000	6.19148	3.34861	4.83806	3.27128
4394.000	6.17194	3.29354	4.87535	3.19601
4395.000	6.20321	3.37613	4.83806	3.31080
4396.000	6.25400	3.38566	4.88713	3.21374
4397.000	6.20907	3.34061	4.86554	3.22768
4398.000	6.15240	3.39222	4.86357	3.23954
4399.000	6.17976	3.32306	4.85572	3.28107
4400.000	6.19148	3.34269	4.82432	3.22985
4401.000	6.21102	3.38987	4.91656	3.22743
4402.000	6.19148	3.37423	4.90086	3.25715
4403.000	6.18953	3.28160	4.85572	3.24353
4404.000	6.19930	3.34856	4.90675	3.18796
4405.000	6.16999	3.35663	4.83609	3.21794
4406.000	6.16413	3.31330	4.86554	3.20594
4407.000	6.16608	3.36257	4.82824	3.23181
4408.000	6.20125	3.26773	4.86946	3.21580
4409.000	6.15435	3.30547	4.85572	3.20796
4410.000	6.17781	3.33095	4.85572	3.24353
4411.000	6.17585	3.40587	4.83020	3.19030
4412.000	6.17390	3.35069	4.89498	3.19197
4413.000	6.18171	3.38218	4.87339	3.19602
4414.000	6.14067	3.38244	4.85180	3.18427
4415.000	6.13481	3.34502	4.81843	3.27138
4416.000	6.18171	3.36838	4.84198	3.26138
4417.000	6.16413	3.35469	4.85965	3.17040
4418.000	6.14654	3.41197	4.90086	3.23936
4419.000	6.15435	3.39615	4.84002	3.23768
4420.000	6.19344	3.37422	4.88516	3.21968
4421.000	6.20712	3.37019	4.88516	3.22561
4422.000	6.11722	3.40230	4.85572	3.20204
