time (ms)	lx (deg)	ly (deg)	rx (deg)	ry (deg)
0.000	NaN	NaN	NaN	NaN
1.000	NaN	NaN	NaN	NaN
2.000	NaN	NaN	-3.12058	13.69980
3.000	NaN	NaN	-1.74910	13.00169
4.000	NaN	NaN	-0.40923	11.97186
5.000	4.93226	17.74961	-0.44482	11.49694
6.000	5.67514	16.31059	-0.49622	10.99930
7.000	6.09963	14.25388	-0.47249	10.48664
8.000	6.10549	13.74903	-0.45075	10.02822
9.000	5.93343	13.29494	-0.45865	9.47751
10.000	5.82584	12.80344	-0.46656	9.09580
11.000	5.71429	12.35333	-0.48435	8.62383
12.000	5.68297	11.81072	-0.40330	8.15859
13.000	5.47930	11.36050	-0.44482	7.69799
14.000	5.38134	10.93331	-0.44679	7.25013
15.000	5.29706	10.46235	-0.40528	6.81122
16.000	5.14217	9.94669	-0.43296	6.46771
17.000	5.08333	9.40649	-0.40133	6.02740
18.000	4.89301	8.92814	-0.35586	5.70064
19.000	4.74186	8.50393	-0.32620	5.36363
20.000	4.59260	8.07852	-0.21154	4.98284
21.000	4.56510	7.56303	-0.21945	4.58970
22.000	4.37843	7.15717	-0.14432	4.33464
23.000	4.23295	6.80277	-0.20956	4.09322
24.000	4.13660	6.39241	-0.10676	3.76851
25.000	3.98119	6.04451	-0.12653	3.58425
26.000	3.92020	5.76413	-0.18188	3.40983
27.000	3.85919	5.33982	-0.14630	3.16594
28.000	3.66431	5.10276	-0.15816	3.03502
29.000	3.57964	4.68537	-0.11664	2.78897
30.000	3.48511	4.33061	-0.10874	2.62819
31.000	3.37873	4.19680	-0.08699	2.45743
32.000	3.32750	3.84128	-0.08501	2.25287
33.000	3.27824	3.61996	-0.08501	2.18731
34.000	3.19941	3.41048	-0.06722	2.07805
35.000	3.13437	3.11765	-0.06326	1.95684
36.000	3.16394	2.98089	-0.06326	1.84556
37.000	3.11860	2.75909	-0.06722	1.68854
38.000	3.06735	2.51737	-0.04547	1.59114
39.000	3.08312	2.41026	-0.00989	1.58915
40.000	3.03581	2.16441	-0.04943	1.52951
41.000	2.99244	2.06927	-0.03756	1.58716
42.000	3.01807	1.93230	0.02372	1.67065
43.000	2.95695	1.92447	0.00989	1.86543
44.000	3.00426	1.87676	-0.02175	2.03831
45.000	2.97075	1.82919	-0.02175	2.18732
46.000	2.92145	1.80942	-0.02175	2.32636
47.000	2.94314	1.80541	-0.06524	2.48921
48.000	2.89976	2.04761	-0.08106	2.47729
49.000	2.92342	2.06741	0.00000	2.50112
50.000	2.90371	2.26585	-0.07908	2.52693
51.000	2.86624	2.48808	-0.05733	2.52693
52.000	2.87018	2.59119	-0.07908	2.57458
53.000	2.84257	2.70030	-0.06326	2.52296
54.000	2.85835	2.81326	-0.06524	2.52098
55.000	2.84454	2.88861	-0.12060	2.52494
56.000	2.79327	2.84513	-0.07710	2.47531
57.000	2.70056	2.88698	-0.09687	2.50112
58.000	2.77354	2.89474	-0.12257	2.59046
59.000	2.77946	2.84913	-0.08897	2.56664
60.000	2.73015	2.80960	-0.11071	2.56267
61.000	2.80313	2.86691	-0.11862	2.59046
62.000	2.75382	2.81550	-0.13246	2.53288
63.000	2.73804	2.80364	-0.17398	2.52692
64.000	2.73212	2.82942	-0.13839	2.52494
65.000	2.70845	2.75018	-0.15223	2.50111
66.000	2.72620	2.83737	-0.18979	2.49912
67.000	2.73409	2.81554	-0.13048	2.49516
68.000	2.74198	2.77786	-0.17002	2.49515
69.000	2.77552	2.77183	-0.16607	2.49317
70.000	2.70648	2.76406	-0.15421	2.49516
71.000	2.73409	2.75408	-0.10676	2.57855
72.000	2.71831	2.78584	-0.15421	2.58252
73.000	2.78932	2.75197	-0.11664	2.52296
74.000	2.78143	2.75398	-0.12060	2.50906
75.000	2.74790	2.76595	-0.18584	2.51898
76.000	2.76960	2.77383	-0.13839	2.57458
77.000	2.74198	2.79173	-0.17002	2.51104
78.000	2.79524	2.77377	-0.16014	2.50707
79.000	2.78538	2.82533	-0.12060	2.49317
80.000	2.76763	2.78969	-0.13246	2.50707
81.000	2.73409	2.81752	-0.15025	2.50906
82.000	2.77749	2.82337	-0.16211	2.50111
83.000	2.75974	2.78971	-0.14234	2.54083
84.000	2.72620	2.83142	-0.14827	2.59840
85.000	2.74198	2.80165	-0.13048	2.59443
86.000	2.77157	2.83924	-0.12653	2.62024
87.000	2.76171	2.81151	-0.09885	2.65399
88.000	2.76171	2.83926	-0.10676	2.63613
89.000	2.77157	2.82933	-0.09490	2.64804
90.000	2.75974	2.86306	-0.10478	2.61032
91.000	2.76763	2.86898	-0.12653	2.65201
92.000	2.74987	2.91065	-0.11467	2.62223
93.000	2.73804	2.82544	-0.16014	2.63811
94.000	2.75185	2.86902	-0.17398	2.63016
95.000	2.73409	2.85519	-0.11071	2.65399
96.000	2.76960	2.86105	-0.15025	2.63215
97.000	2.72818	2.85718	-0.09687	2.57260
98.000	2.74396	2.87102	-0.14037	2.60634
99.000	2.75579	2.89676	-0.15618	2.64009
100.000	2.77946	2.83922	-0.13641	2.64009
101.000	2.73804	2.89482	-0.14234	2.66789
102.000	2.72029	2.92063	-0.10874	2.62223
103.000	2.75974	2.88089	-0.11862	2.57657
104.000	2.75579	2.89874	-0.12653	2.64605
105.000	2.73804	2.91662	-0.10478	2.61429
106.000	2.75382	2.90668	-0.13839	2.67781
107.000	2.74790	2.87696	-0.11269	2.66590
108.000	2.76368	2.92053	-0.10083	2.67980
109.000	2.73804	2.92852	-0.15025	2.64803
110.000	2.74396	2.90274	-0.11467	2.64407
111.000	2.72818	2.87899	-0.11071	2.61627
112.000	2.69662	2.91672	-0.14037	2.64803
113.000	2.72029	2.88099	-0.13839	2.63414
114.000	2.70056	2.90284	-0.16211	2.64803
115.000	2.70845	2.92264	-0.14037	2.58649
116.000	2.71437	2.89884	-0.11071	2.58054
117.000	2.73409	2.88690	-0.14432	2.54281
118.000	2.74593	2.91264	-0.15223	2.55671
119.000	2.75382	2.92451	-0.13641	2.49317
120.000	2.69267	2.91872	-0.16211	2.50905
121.000	2.75974	2.88684	-0.16014	2.47728
122.000	2.79721	2.95017	-0.13641	2.44353
123.000	2.73212	2.88493	-0.17595	2.39785
124.000	2.74396	2.90274	-0.18188	2.44749
125.000	2.74987	2.90669	-0.21352	2.47529
126.000	2.73409	2.86906	-0.19770	2.43955
127.000	2.71634	2.87505	-0.21154	2.49912
128.000	2.73804	2.86905	-0.19572	2.48522
129.000	2.74396	2.89877	-0.23724	2.46337
130.000	2.74001	2.88491	-0.21549	2.48323
131.000	2.71240	2.84929	-0.17398	2.45345
132.000	2.76368	2.89476	-0.15816	2.45544
133.000	2.71831	2.87703	-0.18584	2.47529
134.000	2.71634	2.88496	-0.16607	2.44948
135.000	2.74790	2.84524	-0.16607	2.49714
136.000	2.75776	2.83927	-0.18584	2.47728
137.000	2.75974	2.83530	-0.17991	2.50111
138.000	2.74001	2.85319	-0.15025	2.53884
139.000	2.76763	2.84123	-0.17991	2.46537
140.000	2.71634	2.82946	-0.20363	2.51898
141.000	2.72620	2.81754	-0.18386	2.49714
142.000	2.70056	2.82355	-0.15618	2.51700
143.000	2.72226	2.82945	-0.15223	2.48523
144.000	2.72226	2.81953	-0.17200	2.51898
145.000	2.72029	2.85720	-0.15025	2.53884
146.000	2.72620	2.80961	-0.15816	2.59245
147.000	2.72620	2.87503	-0.14630	2.51104
148.000	2.69662	2.76607	-0.10874	2.55274
149.000	2.70056	2.80967	-0.14037	2.54678
150.000	2.66900	2.79190	-0.16409	2.52295
151.000	2.68083	2.82756	-0.14037	2.55870
152.000	2.70451	2.80372	-0.14432	2.57458
153.000	2.66703	2.75820	-0.13641	2.50310
154.000	2.69070	2.79582	-0.13444	2.59642
155.000	2.68873	2.78393	-0.16409	2.53487
156.000	2.72620	2.79772	-0.11862	2.59642
157.000	2.68281	2.76610	-0.10083	2.61429
158.000	2.69464	2.77400	-0.09490	2.54877
159.000	2.68281	2.79385	-0.13246	2.64605
160.000	2.66900	2.78794	-0.07710	2.56466
161.000	2.68675	2.78591	-0.08303	2.58848
162.000	2.69267	2.84537	-0.11269	2.56863
163.000	2.67294	2.79784	-0.09885	2.60833
164.000	2.67886	2.77007	-0.13839	2.56068
165.000	2.66308	2.78002	-0.08699	2.59047
166.000	2.62954	2.77216	-0.10280	2.53686
167.000	2.63941	2.77412	-0.08699	2.63216
168.000	2.65913	2.77012	-0.13839	2.59046
169.000	2.65124	2.75824	-0.11071	2.60436
170.000	2.64335	2.79394	-0.08303	2.60833
171.000	2.65519	2.74633	-0.05931	2.61628
172.000	2.69267	2.83943	-0.06722	2.56664
173.000	2.67294	2.75026	-0.07908	2.59642
174.000	2.69070	2.77203	-0.04745	2.58253
175.000	2.67886	2.76809	-0.07513	2.61628
176.000	2.62757	2.73648	-0.10478	2.60833
177.000	2.65322	2.76616	-0.07908	2.60238
178.000	2.61968	2.74443	-0.06722	2.56466
179.000	2.68478	2.80971	-0.07908	2.58054
180.000	2.58614	2.73855	-0.07315	2.56267
181.000	2.66900	2.75621	-0.12257	2.60833
182.000	2.65124	2.79392	-0.06326	2.58848
183.000	2.66505	2.74829	-0.09292	2.61230
184.000	2.64138	2.83756	-0.05338	2.61231
185.000	2.62362	2.72657	-0.08106	2.58650
186.000	2.64533	2.79394	-0.10280	2.60436
187.000	2.60981	2.77617	-0.04943	2.58650
188.000	2.64730	2.78006	-0.08699	2.56069
189.000	2.63941	2.76223	-0.05536	2.58650
190.000	2.65913	2.84545	-0.09490	2.56863
191.000	2.66505	2.77010	-0.05733	2.55870
192.000	2.67294	2.77207	-0.08897	2.58252
193.000	2.67492	2.79189	-0.10478	2.62422
194.000	2.63546	2.80189	-0.04349	2.58451
195.000	2.68478	2.76609	-0.12060	2.61230
196.000	2.63349	2.77612	-0.09885	2.61628
197.000	2.67097	2.80181	-0.07908	2.54480
198.000	2.62560	2.75631	-0.09490	2.61032
199.000	2.66111	2.78201	-0.09490	2.60635
200.000	2.67689	2.81567	-0.09687	2.57855
201.000	2.65124	2.74634	-0.09687	2.57061
202.000	2.64138	2.81377	-0.08897	2.59642
203.000	2.62165	2.79003	-0.10083	2.58252
204.000	2.64335	2.81377	-0.09885	2.59444
205.000	2.67294	2.77207	-0.09687	2.58252
206.000	2.69464	2.74030	-0.09687	2.62025
207.000	2.66111	2.78795	-0.09687	2.59642
208.000	2.65519	2.81771	-0.07315	2.62223
209.000	2.65913	2.82563	-0.06920	2.59642
210.000	2.63743	2.82766	-0.05140	2.65003
211.000	2.63152	2.78406	-0.14234	2.65598
212.000	2.64335	2.80584	-0.08106	2.64804
213.000	2.62165	2.76227	-0.08303	2.65797
214.000	2.62757	2.81777	-0.06326	2.61032
215.000	2.64335	2.80386	-0.06129	2.59841
216.000	2.67886	2.83153	-0.07513	2.58451
217.000	2.62560	2.80588	-0.04547	2.57061
218.000	2.61968	2.82572	-0.06920	2.61231
219.000	2.61179	2.80789	-0.03361	2.64010
220.000	2.61179	2.80591	-0.11664	2.65399
221.000	2.67886	2.84144	-0.11269	2.62024
222.000	2.64730	2.84746	-0.06524	2.61628
223.000	2.64335	2.83359	-0.04943	2.62819
224.000	2.61771	2.76823	-0.07117	2.61429
225.000	2.62165	2.80390	-0.07315	2.64804
226.000	2.63743	2.79990	-0.05140	2.55672
227.000	2.59403	2.80000	-0.11269	2.66193
228.000	2.64138	2.79593	-0.07908	2.54679
229.000	2.61179	2.81979	-0.09490	2.56466
230.000	2.63743	2.79990	-0.06920	2.59245
231.000	2.58614	2.76235	-0.08897	2.63414
232.000	2.64927	2.78600	-0.09094	2.61628
233.000	2.63546	2.80586	-0.09292	2.59642
234.000	2.61771	2.86339	-0.10874	2.65002
235.000	2.64335	2.78601	-0.08897	2.60635
236.000	2.62757	2.78010	-0.09885	2.62025
237.000	2.61376	2.77815	-0.09292	2.63216
238.000	2.64533	2.80187	-0.05536	2.59444
239.000	2.61771	2.80986	-0.08699	2.62025
240.000	2.61179	2.81186	-0.08303	2.63811
241.000	2.60784	2.87134	-0.05536	2.58451
242.000	2.61179	2.86737	-0.06524	2.56863
243.000	2.57825	2.80004	-0.04745	2.59245
244.000	2.62362	2.77416	-0.06326	2.60039
245.000	2.59995	2.79999	-0.10478	2.59642
246.000	2.60390	2.77222	-0.08303	2.62025
247.000	2.60981	2.76031	-0.05931	2.58253
248.000	2.63349	2.78009	-0.14234	2.62223
249.000	2.59008	2.77027	-0.10280	2.60833
250.000	2.59008	2.77820	-0.08897	2.67583
251.000	2.59995	2.73257	-0.04152	2.60238
252.000	2.60192	2.78214	-0.07513	2.60436
253.000	2.61573	2.82771	-0.08897	2.59047
254.000	2.57430	2.79608	-0.08699	2.55473
255.000	2.64533	2.76023	-0.07117	2.53885
256.000	2.59798	2.79404	-0.08303	2.57458
257.000	2.60390	2.84161	-0.08303	2.56664
258.000	2.62954	2.82371	-0.10676	2.65201
259.000	2.61771	2.76624	-0.08303	2.61826
260.000	2.58219	2.80796	-0.07315	2.56664
261.000	2.59403	2.81190	-0.07513	2.56863
262.000	2.61573	2.77219	-0.09490	2.50112
263.000	2.58417	2.78218	-0.06920	2.55076
264.000	2.56838	2.85557	-0.05931	2.57260
265.000	2.60981	2.78410	-0.09094	2.61429
266.000	2.60981	2.81979	-0.04943	2.59047
267.000	2.59600	2.82577	-0.13444	2.53487
268.000	2.61376	2.81383	-0.09292	2.56267
269.000	2.57825	2.76633	-0.09490	2.55473
270.000	2.63743	2.83559	-0.07908	2.56664
271.000	2.62165	2.80192	-0.08106	2.59047
272.000	2.65322	2.85538	-0.10280	2.51700
273.000	2.66308	2.85337	-0.11071	2.55671
274.000	2.63743	2.78999	-0.13246	2.56068
275.000	2.65124	2.82763	-0.12060	2.55671
276.000	2.63546	2.84352	-0.11862	2.50906
277.000	2.55852	2.83180	-0.11664	2.42764
278.000	2.53089	2.83583	-0.09885	2.34423
279.000	2.47959	2.79430	-0.12455	2.27074
280.000	2.38881	2.80638	-0.23724	2.32436
281.000	2.28618	2.72131	-0.31632	2.16146
282.000	2.16774	2.55092	-0.39342	1.96077
283.000	2.06310	2.33081	-0.57727	1.76597
284.000	1.89130	2.07493	-0.67413	1.54133
285.000	1.78663	1.88836	-0.72750	1.28088
286.000	1.62861	1.65011	-0.84412	1.17348
287.000	1.50415	1.48924	-0.88563	1.10586
288.000	1.52193	1.40973	-0.95876	1.01635
289.000	1.43303	1.26468	-1.01014	0.95469
290.000	1.38166	1.20308	-1.05758	0.91093
291.000	1.38561	1.16928	-1.10106	0.90495
292.000	1.36980	1.05398	-1.05955	0.93280
293.000	1.42315	1.10764	-1.07734	0.89303
294.000	1.40734	1.11361	-1.06548	0.93877
295.000	1.48637	1.11755	-1.08920	0.95069
296.000	1.47649	1.14737	-0.97852	1.05811
297.000	1.53774	1.14535	-0.99631	1.06605
298.000	1.52391	1.16921	-1.00817	1.05611
299.000	1.58318	1.18707	-0.99829	1.05810
300.000	1.61676	1.21886	-1.00817	1.06804
301.000	1.64441	1.17710	-1.07141	1.10381
302.000	1.59700	1.21092	-1.00421	1.07003
303.000	1.67800	1.18900	-1.03979	1.05013
304.000	1.65429	1.16914	-1.03979	1.00241
305.000	1.62071	1.22283	-1.00224	0.99844
306.000	1.62466	1.18307	-0.99829	0.97856
307.000	1.67207	1.22081	-0.97062	1.06010
308.000	1.65232	1.22678	-0.98445	1.02032
309.000	1.64046	1.23077	-0.93702	1.07005
310.000	1.63849	1.21089	-0.98643	1.03026
311.000	1.60491	1.22880	-0.97852	1.11975
312.000	1.62861	1.21090	-0.97654	1.10981
313.000	1.64639	1.20492	-0.97259	1.07799
314.000	1.65034	1.25461	-0.98643	1.14758
315.000	1.65824	1.27846	-0.99433	1.12770
316.000	1.58713	1.20695	-0.98643	1.15553
317.000	1.65429	1.20094	-0.98050	1.13565
318.000	1.60688	1.22085	-1.00224	1.11377
319.000	1.66417	1.26057	-1.00817	1.09588
320.000	1.64837	1.24269	-0.96271	1.11776
321.000	1.65232	1.22480	-0.97062	1.08595
322.000	1.66812	1.25460	-0.95876	1.08993
323.000	1.62861	1.20493	-0.95283	1.06607
324.000	1.63454	1.25860	-0.98050	1.09787
325.000	1.64244	1.20294	-0.98840	1.08395
326.000	1.66417	1.22280	-0.95678	1.07999
327.000	1.64046	1.21884	-0.94295	1.04221
328.000	1.64441	1.22281	-0.98247	1.09191
329.000	1.70170	1.20091	-1.00817	1.07003
330.000	1.70762	1.27246	-0.95480	1.04618
331.000	1.68392	1.20888	-0.97457	1.07600
332.000	1.69775	1.23669	-0.92120	1.02432
333.000	1.69972	1.28837	-0.97654	1.04618
334.000	1.69972	1.28440	-0.93899	1.05414
335.000	1.69775	1.31023	-0.93504	1.04420
336.000	1.71158	1.24066	-0.94887	1.05613
337.000	1.67404	1.25857	-0.93899	1.03426
338.000	1.68195	1.26056	-0.97259	1.10981
339.000	1.72540	1.26848	-0.93899	1.09590
340.000	1.71355	1.29830	-0.97062	1.07203
341.000	1.68985	1.28639	-0.94295	1.08198
342.000	1.73725	1.29828	-0.98247	1.12173
343.000	1.67404	1.24864	-0.97259	1.10583
344.000	1.70565	1.23470	-0.86981	1.10785
345.000	1.67009	1.30230	-0.93109	1.13169
346.000	1.68787	1.23869	-0.91330	1.12573
347.000	1.69577	1.29831	-0.91725	1.08596
348.000	1.72738	1.27841	-0.92713	1.15555
349.000	1.70565	1.28042	-0.89946	1.09193
350.000	1.72343	1.27643	-0.88958	1.10983
351.000	1.71553	1.26650	-0.89749	1.08796
352.000	1.67009	1.27646	-0.90144	1.14960
353.000	1.67997	1.25857	-0.89353	1.08796
354.000	1.68195	1.24664	-0.86191	1.14961
355.000	1.66219	1.27647	-0.89353	1.13369
356.000	1.71948	1.32215	-0.94097	1.13964
357.000	1.65824	1.27846	-0.86586	1.08996
358.000	1.66614	1.29436	-0.88958	1.16153
359.000	1.70170	1.27843	-0.87179	1.12376
360.000	1.66614	1.29237	-0.88958	1.17744
361.000	1.63651	1.26059	-0.88760	1.14165
362.000	1.63059	1.24469	-0.87772	1.17744
363.000	1.62664	1.27450	-0.87772	1.16750
364.000	1.66219	1.27448	-0.93504	1.08596
365.000	1.67009	1.21286	-0.83819	1.11383
366.000	1.65824	1.27647	-0.88563	1.11978
367.000	1.62269	1.24668	-0.88760	1.13966
368.000	1.63256	1.22878	-0.85005	1.13967
369.000	1.67009	1.27448	-0.86388	1.09592
370.000	1.67404	1.26652	-0.85005	1.07604
371.000	1.66219	1.27448	-0.84017	1.14763
372.000	1.66614	1.27647	-0.85993	1.07405
373.000	1.64639	1.25859	-0.88563	1.10785
374.000	1.66219	1.25659	-0.84017	1.07803
375.000	1.64441	1.23076	-0.82831	1.09195
376.000	1.65627	1.19895	-0.86784	1.07206
377.000	1.62269	1.23475	-0.83226	1.07605
378.000	1.59503	1.20495	-0.86586	1.10586
379.000	1.64639	1.25660	-0.85796	1.12177
380.000	1.62269	1.24867	-0.91527	1.06210
381.000	1.63059	1.23475	-0.89353	1.07404
382.000	1.63454	1.22481	-0.87772	1.04819
383.000	1.63849	1.19300	-0.88958	1.00643
384.000	1.63849	1.17312	-0.89156	0.92688
385.000	1.65034	1.19697	-0.84214	1.02036
386.000	1.63059	1.18903	-0.90934	0.93682
387.000	1.64046	1.16915	-0.90342	0.94876
388.000	1.60293	1.16122	-0.89749	0.96069
389.000	1.65034	1.15721	-0.90144	0.93683
390.000	1.60688	1.13140	-0.89551	0.93086
391.000	1.63849	1.12343	-0.88167	0.93882
392.000	1.62071	1.16518	-0.94295	0.91494
393.000	1.61083	1.11549	-0.89749	0.87120
394.000	1.65034	1.14131	-0.90342	0.95671
395.000	1.66614	1.15323	-0.89353	0.89705
396.000	1.57527	1.15328	-0.87574	0.89905
397.000	1.63849	1.15325	-0.87970	0.92092
398.000	1.65034	1.12143	-0.86981	0.89706
399.000	1.65232	1.10752	-0.88958	0.89507
400.000	1.64837	1.14529	-0.85993	0.90701
401.000	1.64441	1.16914	-0.85400	0.94479
402.000	1.63849	1.12144	-0.84807	0.92888
403.000	1.64837	1.19498	-0.90737	0.88910
404.000	1.65034	1.14330	-0.85993	0.96269
405.000	1.64441	1.12939	-0.84610	0.88513
406.000	1.65429	1.12143	-0.83226	0.89309
407.000	1.62071	1.10555	-0.86981	0.89109
408.000	1.64639	1.14529	-0.92516	0.93085
409.000	1.62861	1.14729	-0.92713	0.93682
410.000	1.61676	1.14531	-0.84807	0.96468
411.000	1.62466	1.17711	-0.88563	0.92291
412.000	1.66022	1.13932	-0.87574	0.95274
413.000	1.65034	1.14529	-0.85598	0.93883
414.000	1.65034	1.18107	-0.85400	0.92491
415.000	1.65824	1.16317	-0.87772	0.94479
416.000	1.59898	1.14134	-0.86191	0.96468
417.000	1.65627	1.11745	-0.79668	0.92094
418.000	1.68392	1.18304	-0.84017	0.92690
419.000	1.59700	1.19501	-0.85400	0.93883
420.000	1.66812	1.10751	-0.82831	0.94281
421.000	1.64441	1.20890	-0.89353	0.94279
422.000	1.61873	1.15922	-0.85400	0.94280
423.000	1.63849	1.12740	-0.84807	0.97263
424.000	1.65429	1.19299	-0.80854	0.93486
425.000	1.69972	1.14526	-0.85203	0.98457
426.000	1.63256	1.13933	-0.87574	0.99053
427.000	1.67602	1.16118	-0.84412	0.94877
428.000	1.65627	1.13733	-0.85005	0.96866
429.000	1.68590	1.22080	-0.77691	1.00447
430.000	1.72145	1.16115	-0.79470	1.02236
431.000	1.71553	1.16115	-0.78680	0.97663
432.000	1.63651	1.13933	-0.83621	1.03826
433.000	1.67404	1.21286	-0.80261	1.02236
434.000	1.68985	1.19098	-0.81249	1.08599
435.000	1.69972	1.23272	-0.79075	1.07208
436.000	1.68195	1.23670	-0.77889	1.03828
437.000	1.69972	1.24862	-0.79866	1.07407
438.000	1.72145	1.21482	-0.80261	1.04622
439.000	1.68392	1.28242	-0.77494	1.08203
440.000	1.69380	1.25657	-0.83226	1.08798
441.000	1.71553	1.24265	-0.82831	1.07406
442.000	1.72540	1.24264	-0.81052	1.10190
443.000	1.71750	1.26252	-0.81447	1.09594
444.000	1.76886	1.25851	-0.77098	1.09794
445.000	1.74318	1.23468	-0.83621	1.07008
446.000	1.76095	1.24063	-0.76901	1.09595
447.000	1.75305	1.21479	-0.79668	1.06412
448.000	1.76293	1.23466	-0.78482	1.02634
449.000	1.69577	1.20092	-0.80063	1.05020
450.000	1.71158	1.22277	-0.81052	1.08401
451.000	1.76688	1.27044	-0.75517	1.05021
452.000	1.73725	1.24661	-0.77296	1.05816
453.000	1.74713	1.17902	-0.82238	1.09991
454.000	1.73725	1.24064	-0.81447	1.10588
455.000	1.77083	1.23068	-0.78284	1.10589
456.000	1.71553	1.21879	-0.77889	1.05617
457.000	1.78071	1.24062	-0.80261	1.05020
458.000	1.75108	1.22076	-0.77691	1.12180
459.000	1.74713	1.24263	-0.76308	1.12180
460.000	1.76491	1.22274	-0.76703	1.06015
461.000	1.76688	1.27839	-0.78284	1.04424
462.000	1.73923	1.25456	-0.80261	1.07804
463.000	1.69182	1.25459	-0.80261	1.06213
464.000	1.72343	1.25258	-0.71959	0.99653
465.000	1.72343	1.29233	-0.80261	0.97463
466.000	1.72145	1.28239	-0.80656	1.01441
467.000	1.75898	1.28237	-0.78877	1.06810
468.000	1.75700	1.24858	-0.78087	1.05021
469.000	1.74515	1.24660	-0.79075	1.04424
470.000	1.74318	1.27642	-0.80063	1.02833
471.000	1.78861	1.27241	-0.79075	1.04026
472.000	1.73133	1.23071	-0.79273	1.03628
473.000	1.71750	1.21482	-0.81052	0.99651
474.000	1.71948	1.28836	-0.79470	1.06015
475.000	1.76688	1.28037	-0.80854	1.05219
476.000	1.74515	1.28635	-0.76308	1.05021
477.000	1.73923	1.26648	-0.81447	1.04026
478.000	1.72738	1.26848	-0.76110	1.05419
479.000	1.72145	1.27643	-0.77889	1.00049
480.000	1.72343	1.29432	-0.79866	1.04026
481.000	1.70170	1.29831	-0.82040	1.09991
482.000	1.74515	1.31219	-0.78284	1.06015
483.000	1.75305	1.29231	-0.79075	1.01441
484.000	1.68195	1.27844	-0.78680	1.00646
485.000	1.69577	1.27645	-0.80656	0.99651
486.000	1.71553	1.26848	-0.77691	0.97265
487.000	1.75108	1.27641	-0.76110	1.02038
488.000	1.74515	1.31815	-0.77494	1.02635
489.000	1.74910	1.31616	-0.78284	1.03032
490.000	1.72540	1.32612	-0.76110	1.08800
491.000	1.68590	1.27248	-0.78482	1.03032
492.000	1.74515	1.28039	-0.73936	1.05221
493.000	1.71355	1.24662	-0.78877	1.00646
494.000	1.74910	1.25057	-0.77691	0.97862
495.000	1.73330	1.29630	-0.75122	1.01044
496.000	1.71553	1.30625	-0.76308	0.95476
497.000	1.72738	1.26649	-0.82435	0.99452
498.000	1.74515	1.33008	-0.75715	1.02237
499.000	1.79058	1.31216	-0.74924	0.97067
500.000	1.78861	1.27440	-0.74924	0.98658
501.000	1.76491	1.27839	-0.74924	1.00249
502.000	1.75108	1.29629	-0.74924	0.99851
503.000	1.73725	1.23667	-0.73343	0.93090
504.000	1.73330	1.21878	-0.70971	0.96670
505.000	1.70960	1.25855	-0.73738	0.94880
506.000	1.73725	1.21878	-0.77296	0.95277
507.000	1.73133	1.24462	-0.73738	0.91698
508.000	1.73133	1.21878	-0.74924	0.90902
509.000	1.73528	1.24263	-0.72552	0.90505
510.000	1.70170	1.24464	-0.74133	0.86129
511.000	1.71355	1.16712	-0.70971	0.92295
512.000	1.71948	1.18898	-0.75517	0.95476
513.000	1.78663	1.23465	-0.72354	0.87720
514.000	1.70762	1.20886	-0.72354	0.85930
515.000	1.71750	1.23668	-0.68796	0.91102
516.000	1.74318	1.19691	-0.70575	0.90505
517.000	1.69972	1.20092	-0.73343	0.89709
518.000	1.69380	1.18700	-0.66029	0.89511
519.000	1.71158	1.18302	-0.72354	0.84538
520.000	1.67800	1.20292	-0.68994	0.93290
521.000	1.67997	1.17707	-0.72947	0.90505
522.000	1.71158	1.23470	-0.73540	0.82947
523.000	1.71948	1.25656	-0.72947	0.85930
524.000	1.71750	1.18898	-0.74924	0.86924
525.000	1.71355	1.20091	-0.71564	0.88914
526.000	1.69577	1.16315	-0.72157	0.91698
527.000	1.71553	1.22476	-0.72750	0.91499
528.000	1.67800	1.23074	-0.69785	0.97864
529.000	1.67404	1.18105	-0.72354	0.94084
530.000	1.67997	1.15521	-0.72947	0.90703
531.000	1.70367	1.20290	-0.71959	0.96869
532.000	1.70170	1.19694	-0.74133	0.92095
533.000	1.67800	1.15521	-0.72552	0.92493
534.000	1.70960	1.19495	-0.76308	0.93885
535.000	1.64046	1.19300	-0.75122	0.96868
536.000	1.66614	1.19100	-0.75715	0.97862
537.000	1.65824	1.12342	-0.76110	0.98459
538.000	1.65824	1.16516	-0.69192	0.94483
539.000	1.64441	1.19697	-0.69785	1.00250
540.000	1.67800	1.21882	-0.76308	0.95873
541.000	1.66614	1.12938	-0.73738	0.95476
542.000	1.68195	1.17310	-0.73738	0.99454
543.000	1.72738	1.21879	-0.72552	0.94084
544.000	1.69380	1.17508	-0.74331	0.96272
545.000	1.65627	1.18504	-0.74133	0.94482
546.000	1.66417	1.23075	-0.72750	0.95079
547.000	1.70565	1.25657	-0.77889	0.95475
548.000	1.70170	1.22675	-0.74529	0.96868
549.000	1.69380	1.17905	-0.71366	1.00846
550.000	1.65627	1.22082	-0.67808	1.00250
551.000	1.66417	1.20292	-0.74133	0.97067
552.000	1.68195	1.25261	-0.69982	0.97466
553.000	1.68392	1.17508	-0.71564	0.98659
554.000	1.68787	1.23471	-0.74924	0.98857
555.000	1.69577	1.22079	-0.70773	0.94085
556.000	1.66417	1.20292	-0.70773	0.96471
557.000	1.65824	1.19498	-0.72354	1.01641
558.000	1.68195	1.26056	-0.74331	1.01243
559.000	1.65824	1.20690	-0.74726	0.93487
560.000	1.66022	1.20094	-0.77889	0.92890
561.000	1.65232	1.21486	-0.75122	0.99254
562.000	1.66219	1.22479	-0.69389	0.97665
563.000	1.68392	1.22478	-0.70575	0.94284
564.000	1.71553	1.20886	-0.72552	1.00249
565.000	1.67207	1.20491	-0.71168	0.99852
566.000	1.65232	1.23871	-0.73540	0.97266
567.000	1.67997	1.25062	-0.70971	0.95278
568.000	1.69577	1.18700	-0.71564	1.03431
569.000	1.71553	1.18103	-0.76505	1.03033
570.000	1.67009	1.15919	-0.73936	0.96868
571.000	1.66219	1.18305	-0.68994	0.97665
572.000	1.67207	1.19298	-0.69389	0.99256
573.000	1.68590	1.17111	-0.75517	0.96669
574.000	1.69577	1.19297	-0.69982	0.94682
575.000	1.69775	1.22676	-0.70180	0.98858
576.000	1.65824	1.23672	-0.68401	0.97068
577.000	1.70565	1.25855	-0.69982	0.96869
578.000	1.68590	1.19894	-0.69785	0.96670
579.000	1.68195	1.23472	-0.69785	0.97665
580.000	1.68590	1.25062	-0.68796	0.95477
581.000	1.69775	1.24663	-0.69785	0.95278
582.000	1.64639	1.18505	-0.64448	0.96274
583.000	1.67404	1.20888	-0.69587	0.92693
584.000	1.71158	1.18302	-0.73936	1.02834
585.000	1.71553	1.19892	-0.72552	0.98062
586.000	1.69972	1.15520	-0.75715	0.95675
587.000	1.71553	1.21084	-0.72157	0.93886
588.000	1.73133	1.25456	-0.70575	0.97068
589.000	1.71750	1.20289	-0.73343	0.95079
590.000	1.72935	1.19891	-0.68994	0.90903
591.000	1.72935	1.22276	-0.68203	0.97466
592.000	1.69577	1.18502	-0.69785	0.93289
593.000	1.72540	1.22674	-0.66820	0.91699
594.000	1.73330	1.20089	-0.64843	0.94683
595.000	1.70170	1.23470	-0.71761	0.95676
596.000	1.69775	1.17905	-0.71761	0.94283
597.000	1.70960	1.19296	-0.69982	0.93289
598.000	1.72145	1.24463	-0.67808	0.91898
599.000	1.71948	1.21680	-0.65831	0.91500
600.000	1.68985	1.13731	-0.69389	0.89113
601.000	1.71158	1.20290	-0.70378	0.93886
602.000	1.70565	1.19495	-0.69587	0.88516
603.000	1.71553	1.17109	-0.72947	0.92294
604.000	1.66022	1.16118	-0.69587	0.92295
605.000	1.74120	1.20685	-0.67017	0.92097
606.000	1.71553	1.16513	-0.70378	0.95278
607.000	1.72935	1.15916	-0.69982	0.96074
608.000	1.68985	1.15322	-0.68796	0.92892
609.000	1.67602	1.15919	-0.68203	0.94483
610.000	1.69577	1.17110	-0.73343	0.88118
611.000	1.67009	1.17112	-0.68599	0.95278
612.000	1.70565	1.16116	-0.67413	0.92693
613.000	1.71158	1.14724	-0.72552	0.93687
614.000	1.70170	1.15321	-0.70378	0.89113
615.000	1.70960	1.20488	-0.66622	0.88915
616.000	1.67207	1.18503	-0.70773	0.88317
617.000	1.72145	1.14922	-0.68006	0.93489
618.000	1.72738	1.18301	-0.68203	0.89909
619.000	1.73528	1.18897	-0.68796	0.90505
620.000	1.66614	1.11546	-0.69389	0.93488
621.000	1.67997	1.17906	-0.69587	0.90107
622.000	1.73133	1.18102	-0.70773	0.94681
623.000	1.68392	1.15918	-0.71168	0.96073
624.000	1.67997	1.16316	-0.69389	0.91897
625.000	1.72540	1.20885	-0.68599	0.91301
626.000	1.68195	1.17906	-0.70773	0.97466
627.000	1.72935	1.18301	-0.71366	1.03034
628.000	1.70565	1.15519	-0.68599	1.01046
629.000	1.69775	1.17706	-0.66622	0.94086
630.000	1.77478	1.17702	-0.67808	0.95279
631.000	1.71750	1.18500	-0.66029	0.93887
632.000	1.70960	1.15917	-0.67610	0.95875
633.000	1.71158	1.18501	-0.71366	0.95676
634.000	1.72935	1.24264	-0.67413	0.89113
635.000	1.69972	1.14526	-0.67413	0.92693
636.000	1.69577	1.18502	-0.70575	0.96670
637.000	1.72343	1.22873	-0.71959	0.90902
638.000	1.72738	1.18500	-0.67808	0.95477
639.000	1.73725	1.13530	-0.71761	0.90306
640.000	1.73528	1.15120	-0.69982	0.92295
641.000	1.68787	1.18303	-0.72750	0.95874
642.000	1.73923	1.21480	-0.69192	0.96074
643.000	1.72935	1.18500	-0.71564	0.96272
644.000	1.66614	1.13136	-0.71168	0.93289
645.000	1.74713	1.17902	-0.69785	0.93886
646.000	1.70367	1.13532	-0.65634	0.91898
647.000	1.73725	1.15319	-0.66424	0.93290
648.000	1.72738	1.12934	-0.68006	0.92295
649.000	1.71158	1.21880	-0.64448	0.93887
650.000	1.68195	1.23670	-0.69785	0.93091
651.000	1.69380	1.15719	-0.70378	0.97068
652.000	1.74318	1.23269	-0.68006	0.92892
653.000	1.70960	1.19495	-0.70773	0.91102
654.000	1.75108	1.17107	-0.67215	0.87721
655.000	1.72145	1.16512	-0.68006	0.89312
656.000	1.72935	1.20885	-0.70575	0.87323
657.000	1.73330	1.19891	-0.70971	0.92295
658.000	1.71948	1.12537	-0.69192	0.86130
659.000	1.73133	1.19891	-0.68796	0.89909
660.000	1.73133	1.17307	-0.65831	0.87722
661.000	1.73528	1.14524	-0.70971	0.89511
662.000	1.76095	1.13727	-0.68203	0.87920
663.000	1.71750	1.14922	-0.65041	0.81954
664.000	1.73725	1.18897	-0.71564	0.79964
665.000	1.74318	1.14921	-0.67215	0.92693
666.000	1.69577	1.16713	-0.71761	0.84538
667.000	1.69972	1.15520	-0.68401	0.83544
668.000	1.74318	1.13529	-0.66227	0.86926
669.000	1.76886	1.11739	-0.69192	0.93290
670.000	1.68787	1.14924	-0.66029	0.86528
671.000	1.75305	1.19094	-0.69587	0.85533
672.000	1.73725	1.15915	-0.67017	0.90506
673.000	1.72935	1.19891	-0.70575	0.81157
674.000	1.72540	1.16910	-0.67808	0.85732
675.000	1.76688	1.13926	-0.71959	0.84936
676.000	1.73725	1.19692	-0.69587	0.82749
677.000	1.76293	1.11342	-0.71564	0.89510
678.000	1.77478	1.16310	-0.69192	0.84738
679.000	1.78466	1.16707	-0.63657	0.88120
680.000	1.78663	1.17303	-0.65041	0.84539
681.000	1.79256	1.22272	-0.69982	0.93886
682.000	1.74713	1.21877	-0.65634	0.91103
683.000	1.79058	1.19092	-0.69982	0.82550
684.000	1.71553	1.17507	-0.72750	0.87720
685.000	1.71553	1.17507	-0.73738	0.78969
686.000	1.72935	1.11542	-0.73738	0.84140
687.000	1.69182	1.11346	-0.73145	0.84538
688.000	1.66812	1.06179	-0.76703	0.85930
689.000	1.63256	1.12343	-0.76308	0.84339
690.000	1.56540	1.13142	-0.79470	0.76382
691.000	1.59108	1.06580	-0.82238	0.80956
692.000	1.54169	1.07975	-0.83226	0.80558
693.000	1.56145	1.10160	-0.85400	0.83143
694.000	1.58515	1.04394	-0.83226	0.82547
695.000	1.55552	1.09365	-0.77889	0.80559
696.000	1.59108	1.04791	-0.83819	0.83343
697.000	1.59503	1.08171	-0.79075	0.82747
698.000	1.64837	1.04987	-0.80656	0.77576
699.000	1.59898	1.03797	-0.80261	0.82150
700.000	1.70762	1.06574	-0.73343	0.79765
701.000	1.69182	1.01208	-0.70971	0.81555
702.000	1.68787	1.07172	-0.69587	0.80561
703.000	1.68590	1.06774	-0.75715	0.75190
704.000	1.67800	1.08961	-0.74726	0.82151
705.000	1.70565	1.03394	-0.75912	0.83145
706.000	1.68392	1.07371	-0.77494	0.76582
707.000	1.70762	1.07568	-0.78482	0.77178
708.000	1.67800	1.05184	-0.79470	0.70814
709.000	1.63454	1.04193	-0.77296	0.68029
710.000	1.66812	1.00016	-0.83226	0.68028
711.000	1.64837	1.07174	-0.83621	0.66437
712.000	1.63849	1.02602	-0.77691	0.65643
713.000	1.64639	1.02403	-0.82831	0.62062
714.000	1.68787	1.02997	-0.74726	0.60074
715.000	1.65034	1.00216	-0.70773	0.63456
716.000	1.64046	1.03596	-0.82040	0.54503
717.000	1.68392	1.01208	-0.76901	0.63057
718.000	1.71553	0.98225	-0.80459	0.62062
719.000	1.66022	0.99221	-0.75912	0.61068
720.000	1.65824	1.03197	-0.81249	0.57686
721.000	1.62664	0.94650	-0.79668	0.69023
722.000	1.66219	0.98625	-0.78680	0.65642
723.000	1.65232	1.04390	-0.76505	0.66040
724.000	1.66614	1.02799	-0.79866	0.64449
725.000	1.63849	1.04590	-0.75912	0.63057
726.000	1.63651	0.98825	-0.81645	0.62658
727.000	1.66219	0.99818	-0.79668	0.67233
728.000	1.71948	0.99218	-0.77296	0.66836
729.000	1.68195	1.01805	-0.77494	0.64051
730.000	1.64441	0.97035	-0.80656	0.66637
731.000	1.66022	1.02998	-0.75715	0.59676
732.000	1.69972	0.99021	-0.78680	0.60670
733.000	1.67207	1.01606	-0.73145	0.61267
734.000	1.71553	1.02200	-0.78284	0.65245
735.000	1.67997	0.98425	-0.76703	0.63654
736.000	1.68195	0.99419	-0.79470	0.65841
737.000	1.74515	1.01404	-0.76308	0.61665
738.000	1.72343	1.04387	-0.74331	0.62659
739.000	1.70367	1.05183	-0.74924	0.57289
740.000	1.75108	1.01205	-0.75122	0.62262
741.000	1.69577	1.06774	-0.74924	0.58482
742.000	1.70960	1.04586	-0.71168	0.57886
743.000	1.73528	1.11542	-0.78877	0.60670
744.000	1.69775	1.09755	-0.81052	0.61664
745.000	1.74120	1.06175	-0.79668	0.63454
746.000	1.69577	1.11743	-0.83028	0.61266
747.000	1.75503	1.10945	-0.78680	0.72604
748.000	1.75503	1.12932	-0.78284	0.66438
749.000	1.71750	1.09953	-0.75517	0.71212
750.000	1.72145	1.13729	-0.75912	0.72604
751.000	1.73133	1.15717	-0.75122	0.71809
752.000	1.71948	1.09754	-0.76110	0.72604
753.000	1.74515	1.15716	-0.74529	0.77975
754.000	1.72540	1.11741	-0.72947	0.79765
755.000	1.72145	1.14723	-0.77296	0.79963
756.000	1.78663	1.15316	-0.75517	0.75985
757.000	1.75700	1.11342	-0.69587	0.80163
758.000	1.78861	1.15316	-0.75319	0.76582
759.000	1.74120	1.10349	-0.70773	0.76185
760.000	1.73330	1.08163	-0.76308	0.79366
761.000	1.74318	1.13132	-0.75517	0.80759
762.000	1.75305	1.16312	-0.72552	0.87521
763.000	1.76293	1.13926	-0.76505	0.82350
764.000	1.75108	1.09156	-0.73343	0.80163
765.000	1.78663	1.10744	-0.78482	0.81355
766.000	1.74713	1.15716	-0.72750	0.78174
767.000	1.75305	1.12336	-0.75912	0.76980
768.000	1.75898	1.10547	-0.74331	0.80560
769.000	1.76688	1.13329	-0.71959	0.78572
770.000	1.77676	1.13726	-0.75122	0.76383
771.000	1.80243	1.11339	-0.72354	0.71212
772.000	1.78663	1.09551	-0.75122	0.74195
773.000	1.70565	1.05382	-0.76505	0.68228
774.000	1.73923	1.08560	-0.72750	0.60273
775.000	1.76293	1.15715	-0.79668	0.64847
776.000	1.76491	1.10944	-0.75517	0.62063
777.000	1.72738	1.12536	-0.73738	0.63057
778.000	1.76293	1.07366	-0.73738	0.71212
779.000	1.70960	1.10351	-0.74924	0.61068
780.000	1.69775	1.09755	-0.76703	0.59676
781.000	1.73133	1.13331	-0.74331	0.65643
782.000	1.76491	1.07764	-0.76308	0.65046
783.000	1.74318	1.12138	-0.72354	0.57488
784.000	1.72738	1.13530	-0.72157	0.60273
785.000	1.74120	1.04783	-0.70971	0.61665
786.000	1.75503	1.05180	-0.73738	0.61267
787.000	1.77281	1.15515	-0.73936	0.64847
788.000	1.78861	1.11141	-0.74529	0.64648
789.000	1.78663	1.09353	-0.71564	0.67831
790.000	1.74318	1.10945	-0.71168	0.63257
791.000	1.76095	1.09553	-0.67413	0.60274
792.000	1.78663	1.12533	-0.74529	0.57886
793.000	1.70367	1.07966	-0.76901	0.63654
794.000	1.74910	1.14125	-0.70378	0.63058
795.000	1.73923	1.09554	-0.72354	0.62660
796.000	1.77478	1.12931	-0.76505	0.60272
797.000	1.75700	1.11342	-0.76703	0.58084
798.000	1.72540	1.09754	-0.77494	0.60869
799.000	1.78861	1.14719	-0.71959	0.60870
800.000	1.77478	1.11142	-0.72947	0.62461
801.000	1.80243	1.19886	-0.74726	0.61267
802.000	1.78268	1.18297	-0.75715	0.59278
803.000	1.76688	1.19292	-0.73343	0.70218
804.000	1.78268	1.16906	-0.73936	0.64649
805.000	1.73133	1.17307	-0.73738	0.70218
806.000	1.78466	1.15117	-0.74529	0.73201
807.000	1.82613	1.15313	-0.70971	0.71809
808.000	1.80243	1.16507	-0.73540	0.78372
809.000	1.75898	1.15914	-0.77296	0.77974
810.000	1.77873	1.20285	-0.76703	0.75985
811.000	1.82811	1.17698	-0.70773	0.74594
812.000	1.80836	1.16706	-0.73540	0.80361
813.000	1.74318	1.19492	-0.79075	0.81156
814.000	1.78466	1.18496	-0.77691	0.75587
815.000	1.78861	1.16508	-0.78284	0.79963
816.000	1.81231	1.13724	-0.76308	0.74593
817.000	1.82416	1.19686	-0.75319	0.75787
818.000	1.79848	1.15116	-0.75715	0.78173
819.000	1.76293	1.17106	-0.78680	0.78173
820.000	1.81428	1.19488	-0.73145	0.70019
821.000	1.77281	1.17702	-0.76703	0.76980
822.000	1.80046	1.16905	-0.78482	0.76780
823.000	1.76491	1.14522	-0.76308	0.76980
824.000	1.77281	1.15118	-0.81249	0.75587
825.000	1.78268	1.13925	-0.74331	0.71411
826.000	1.78268	1.12136	-0.75319	0.73599
827.000	1.81231	1.17898	-0.78087	0.75388
828.000	1.77083	1.15118	-0.80063	0.71211
829.000	1.75305	1.14721	-0.78680	0.78570
830.000	1.74515	1.15119	-0.80459	0.71609
831.000	1.74713	1.19095	-0.78284	0.71609
832.000	1.78268	1.20881	-0.76703	0.72206
833.000	1.80638	1.16706	-0.79866	0.71808
834.000	1.77281	1.14521	-0.77889	0.69024
835.000	1.79256	1.17104	-0.81447	0.65244
836.000	1.78268	1.24459	-0.76901	0.62858
837.000	1.78466	1.16111	-0.81249	0.65045
838.000	1.78071	1.17900	-0.85400	0.65045
839.000	1.71750	1.14127	-0.82435	0.62658
840.000	1.76688	1.16112	-0.76308	0.63057
841.000	1.80046	1.13128	-0.81447	0.67830
842.000	1.74120	1.10548	-0.80656	0.61664
843.000	1.79848	1.11936	-0.79668	0.71609
844.000	1.75305	1.17107	-0.81052	0.65841
845.000	1.75700	1.17703	-0.78877	0.68825
846.000	1.78861	1.17303	-0.80656	0.66637
847.000	1.75898	1.16112	-0.77494	0.68825
848.000	1.74120	1.20884	-0.74726	0.66439
849.000	1.78466	1.19689	-0.79075	0.65046
850.000	1.77281	1.19491	-0.79075	0.67233
851.000	1.78663	1.19490	-0.78284	0.73002
852.000	1.80638	1.21476	-0.80063	0.65443
853.000	1.74120	1.19691	-0.79668	0.71211
854.000	1.75503	1.16908	-0.76308	0.69024
855.000	1.74515	1.21082	-0.80459	0.66040
856.000	1.79453	1.17700	-0.80459	0.68626
857.000	1.72145	1.18102	-0.83819	0.69421
858.000	1.75898	1.17106	-0.79075	0.71012
859.000	1.76095	1.23467	-0.74529	0.68825
860.000	1.77281	1.19888	-0.81052	0.72206
861.000	1.76491	1.16112	-0.73738	0.72406
862.000	1.77676	1.18695	-0.77494	0.83941
863.000	1.76886	1.15118	-0.79668	0.76780
864.000	1.74713	1.20884	-0.78284	0.74990
865.000	1.71948	1.16910	-0.75715	0.74991
866.000	1.79256	1.19291	-0.85993	0.72403
867.000	1.80836	1.22470	-0.78680	0.68427
868.000	1.79651	1.15911	-0.79866	0.75388
869.000	1.72540	1.20090	-0.80261	0.73001
870.000	1.76095	1.17106	-0.80063	0.70018
871.000	1.75305	1.14523	-0.77494	0.69819
872.000	1.74318	1.16710	-0.78284	0.68228
873.000	1.73923	1.20089	-0.78680	0.67035
874.000	1.76293	1.19690	-0.80063	0.71211
875.000	1.72738	1.15319	-0.78680	0.74593
876.000	1.75108	1.16312	-0.78680	0.66239
877.000	1.75305	1.18101	-0.85400	0.72205
878.000	1.74515	1.16113	-0.81249	0.73598
879.000	1.72935	1.17704	-0.80656	0.69023
880.000	1.72738	1.21084	-0.78087	0.72604
881.000	1.76491	1.18895	-0.80063	0.76979
882.000	1.79256	1.19092	-0.77691	0.70416
883.000	1.76491	1.19292	-0.78482	0.66637
884.000	1.72738	1.16909	-0.81249	0.76780
885.000	1.75305	1.19492	-0.80063	0.73399
886.000	1.75898	1.17305	-0.82633	0.70813
887.000	1.78268	1.16310	-0.80656	0.64648
888.000	1.71355	1.14724	-0.79866	0.71808
889.000	1.72145	1.18102	-0.77889	0.68029
890.000	1.76293	1.17702	-0.82040	0.71808
891.000	1.71355	1.16513	-0.79866	0.67233
892.000	1.72935	1.21282	-0.83621	0.66636
893.000	1.73133	1.17704	-0.83621	0.69619
894.000	1.77676	1.21478	-0.80656	0.71609
895.000	1.75700	1.19889	-0.78680	0.68626
896.000	1.74120	1.13530	-0.79866	0.66239
897.000	1.78268	1.15713	-0.81447	0.69222
898.000	1.72935	1.12735	-0.79866	0.71808
899.000	1.72540	1.13928	-0.77691	0.68029
900.000	1.74910	1.18101	-0.81842	0.65841
901.000	1.74120	1.16710	-0.79668	0.68427
902.000	1.75700	1.14522	-0.78877	0.62460
903.000	1.73923	1.14524	-0.80063	0.60471
904.000	1.73330	1.08561	-0.80063	0.63852
905.000	1.77478	1.15714	-0.85993	0.62459
906.000	1.77676	1.22869	-0.80854	0.53907
907.000	1.74318	1.22871	-0.81249	0.57487
908.000	1.74713	1.18896	-0.84017	0.59277
909.000	1.79058	1.26048	-0.82238	0.59078
910.000	1.76095	1.17901	-0.85993	0.57884
911.000	1.71355	1.25060	-0.81842	0.60868
912.000	1.76886	1.22870	-0.81842	0.66437
913.000	1.76293	1.25255	-0.87179	0.66834
914.000	1.79256	1.30619	-0.85400	0.63453
915.000	1.78861	1.27042	-0.82633	0.57288
916.000	1.77478	1.31614	-0.81842	0.57487
917.000	1.76095	1.28435	-0.90144	0.60469
918.000	1.77676	1.24459	-0.82238	0.62261
919.000	1.79256	1.26247	-0.79075	0.61664
920.000	1.74713	1.24263	-0.80063	0.59476
921.000	1.77873	1.23465	-0.83819	0.59675
922.000	1.75700	1.21877	-0.81645	0.53310
923.000	1.72738	1.18102	-0.83424	0.51917
924.000	1.72935	1.23667	-0.84214	0.52514
925.000	1.73330	1.16512	-0.84412	0.55696
926.000	1.75898	1.20485	-0.80063	0.56692
927.000	1.73528	1.19493	-0.77691	0.58880
928.000	1.74515	1.13529	-0.76901	0.54504
929.000	1.77083	1.21478	-0.88167	0.59475
930.000	1.77281	1.15913	-0.80063	0.58681
931.000	1.75503	1.16510	-0.81249	0.71808
932.000	1.77676	1.16111	-0.84412	0.64647
933.000	1.74120	1.16909	-0.80459	0.66438
934.000	1.72145	1.13928	-0.79470	0.66637
935.000	1.74713	1.13330	-0.84214	0.68227
936.000	1.75503	1.16311	-0.83226	0.63852
937.000	1.74713	1.15914	-0.79470	0.68029
938.000	1.76886	1.16907	-0.81447	0.68228
939.000	1.73725	1.22276	-0.87377	0.67829
940.000	1.73528	1.17903	-0.81052	0.66636
941.000	1.72343	1.18301	-0.83819	0.69222
942.000	1.72145	1.19096	-0.77494	0.70217
943.000	1.76886	1.19292	-0.79668	0.70416
944.000	1.75503	1.21281	-0.85005	0.70415
945.000	1.75898	1.18696	-0.81645	0.72205
946.000	1.77478	1.23466	-0.84017	0.72006
947.000	1.73330	1.16710	-0.81249	0.68824
948.000	1.73330	1.25058	-0.80656	0.68824
949.000	1.74515	1.17505	-0.79668	0.69819
950.000	1.80243	1.22669	-0.85203	0.68625
951.000	1.75305	1.24063	-0.82040	0.68824
952.000	1.74318	1.18896	-0.83621	0.67631
953.000	1.75108	1.22672	-0.81447	0.65244
954.000	1.72145	1.20090	-0.83819	0.64647
955.000	1.72738	1.17903	-0.82435	0.68625
956.000	1.69577	1.19495	-0.83226	0.65443
957.000	1.72343	1.16313	-0.81842	0.66040
958.000	1.77478	1.16509	-0.82238	0.65841
959.000	1.75108	1.16312	-0.79470	0.66438
960.000	1.73923	1.18698	-0.83621	0.67829
961.000	1.72343	1.20488	-0.81249	0.65244
962.000	1.69972	1.21483	-0.75319	0.61864
963.000	1.70762	1.19693	-0.76505	0.63057
964.000	1.71158	1.15917	-0.77691	0.71808
965.000	1.76491	1.18696	-0.80261	0.67432
966.000	1.79256	1.19887	-0.82040	0.64250
967.000	1.69775	1.19098	-0.81249	0.65642
968.000	1.69577	1.17110	-0.78482	0.70217
969.000	1.70170	1.16116	-0.86586	0.67829
970.000	1.73725	1.19294	-0.85400	0.71011
971.000	1.72145	1.17705	-0.86784	0.68426
972.000	1.67207	1.15323	-0.83424	0.70813
973.000	1.73528	1.23071	-0.83424	0.72802
974.000	1.75108	1.25852	-0.80261	0.66239
975.000	1.68590	1.26453	-0.83621	0.73199
976.000	1.70170	1.29632	-0.78877	0.68427
977.000	1.67800	1.30826	-0.80459	0.68626
978.000	1.72343	1.32214	-0.80261	0.66239
979.000	1.70367	1.26253	-0.83226	0.66437
980.000	1.70565	1.29234	-0.83226	0.69023
981.000	1.68590	1.24863	-0.81447	0.61863
982.000	1.69182	1.27248	-0.78877	0.64250
983.000	1.71750	1.25457	-0.81645	0.67034
984.000	1.66812	1.23075	-0.81249	0.69421
985.000	1.66812	1.25659	-0.78877	0.63454
986.000	1.73133	1.31021	-0.78087	0.62460
987.000	1.68787	1.25658	-0.79075	0.66438
988.000	1.67800	1.26453	-0.81249	0.64051
989.000	1.73923	1.28238	-0.83226	0.69421
990.000	1.70960	1.27048	-0.83226	0.69421
991.000	1.68195	1.22478	-0.80854	0.60670
992.000	1.71355	1.25656	-0.77691	0.63852
993.000	1.70565	1.32812	-0.85400	0.63453
994.000	1.69577	1.27446	-0.84610	0.64050
995.000	1.71553	1.28438	-0.80656	0.68427
996.000	1.72935	1.30823	-0.84214	0.68426
997.000	1.71553	1.33010	-0.82040	0.67233
998.000	1.71553	1.29631	-0.80063	0.70416
999.000	1.68590	1.26652	-0.80063	0.71609
1000.000	1.68195	1.22875	-0.83028	0.75188
1001.000	1.74120	1.29431	-0.80854	0.70813
1002.000	1.70960	1.26650	-0.77889	0.70615
1003.000	1.72540	1.30028	-0.78877	0.66239
1004.000	1.75503	1.27641	-0.85005	0.72404
1005.000	1.69182	1.27844	-0.83226	0.69421
1006.000	1.70367	1.24862	-0.80261	0.66438
1007.000	1.74318	1.29430	-0.83028	0.65642
1008.000	1.74318	1.27443	-0.85598	0.67829
1009.000	1.74120	1.30226	-0.81645	0.69819
1010.000	1.66812	1.25063	-0.81052	0.70217
1011.000	1.69972	1.22477	-0.80063	0.65443
1012.000	1.72935	1.24462	-0.80063	0.68824
1013.000	1.69775	1.25260	-0.78087	0.73996
1014.000	1.69775	1.24067	-0.80459	0.67034
1015.000	1.72738	1.34201	-0.87179	0.76978
1016.000	1.75503	1.41553	-0.85400	0.75984
1017.000	1.75700	1.53674	-0.88563	0.80756
1018.000	1.65627	1.62028	-0.92516	0.92489
1019.000	1.59108	1.76339	-0.98643	1.04021
1020.000	1.55552	1.78925	-1.06351	1.15153
1021.000	1.50218	1.85685	-1.02003	1.35832
1022.000	1.47649	2.01181	-1.09117	1.58091
1023.000	1.50613	2.21238	-1.10501	1.65643
1024.000	1.50218	2.36726	-1.17813	1.79351
1025.000	1.49625	2.56577	-1.16429	1.86902
1026.000	1.44883	2.71864	-1.14453	2.02400
1027.000	1.45081	2.92100	-1.17220	2.10145
1028.000	1.45871	2.94876	-1.17022	2.17892
1029.000	1.45279	3.06578	-1.18603	2.31792
1030.000	1.44686	3.07769	-1.17615	2.43905
1031.000	1.47452	3.18473	-1.24334	2.40921
1032.000	1.48045	3.22437	-1.19196	2.64152
1033.000	1.49032	3.30761	-1.21567	2.66531
1034.000	1.48835	3.38888	-1.22753	2.66331
1035.000	1.48045	3.32943	-1.24334	2.69108
1036.000	1.47649	3.35520	-1.21370	2.61371
1037.000	1.48045	3.40078	-1.22160	2.60179
1038.000	1.51601	3.33929	-1.23148	2.59186
1039.000	1.48637	3.31158	-1.16429	2.49266
1040.000	1.49032	3.27788	-1.20777	2.45888
1041.000	1.47057	3.26007	-1.15046	2.41128
1042.000	1.46662	3.16689	-1.13465	2.31796
1043.000	1.44686	3.09356	-1.11884	2.32592
1044.000	1.45871	3.07966	-1.09908	2.29019
1045.000	1.41525	3.02617	-1.07339	2.29021
1046.000	1.40537	2.97660	-1.11884	2.22265
1047.000	1.41722	3.00634	-1.09513	2.23657
1048.000	1.40339	2.92305	-1.03781	2.28030
1049.000	1.44291	2.99440	-1.05362	2.25448
1050.000	1.41722	2.99642	-1.02793	2.28031
1051.000	1.44291	2.98052	-1.06746	2.25248
1052.000	1.36980	2.94887	-1.10106	2.31402
1053.000	1.36585	2.99450	-1.08129	2.34382
1054.000	1.40932	2.97858	-1.08920	2.30211
1055.000	1.38166	2.96869	-1.11489	2.35372
1056.000	1.40932	2.94089	-1.08920	2.34580
1057.000	1.41327	2.98849	-1.11687	2.36762
1058.000	1.36585	2.97268	-1.13465	2.36761
1059.000	1.40339	2.98850	-1.17813	2.38345
1060.000	1.41525	2.93890	-1.17022	2.32985
1061.000	1.39549	2.96868	-1.12279	2.36960
1062.000	1.41920	2.93889	-1.13860	2.34576
1063.000	1.42117	2.98055	-1.15639	2.27823
1064.000	1.35992	2.99054	-1.14651	2.29412
1065.000	1.41525	2.93295	-1.15046	2.31398
1066.000	1.40734	2.94288	-1.14848	2.31001
1067.000	1.40932	2.93097	-1.17813	2.30998
1068.000	1.38758	2.99249	-1.13465	2.25441
1069.000	1.39351	3.00042	-1.19394	2.30203
1070.000	1.43698	2.96069	-1.19196	2.30402
1071.000	1.39944	3.00636	-1.18010	2.30204
1072.000	1.39944	2.95280	-1.14848	2.25440
1073.000	1.38166	2.95878	-1.19591	2.24444
1074.000	1.43105	2.98648	-1.14058	2.22065
1075.000	1.41327	3.04799	-1.15837	2.23454
1076.000	1.43500	2.96863	-1.20184	2.27025
1077.000	1.39944	2.98057	-1.17418	2.21864
1078.000	1.39351	2.94686	-1.15837	2.23255
1079.000	1.46662	2.97454	-1.14651	2.22462
1080.000	1.37771	2.97465	-1.13663	2.21271
1081.000	1.43500	3.01821	-1.17615	2.21268
1082.000	1.41525	2.99840	-1.16232	2.19283
1083.000	1.46266	3.00826	-1.14453	2.22263
1084.000	1.42908	2.97260	-1.16232	2.19680
1085.000	1.42315	2.95277	-1.17615	2.20275
1086.000	1.46464	2.96462	-1.13268	2.23456
1087.000	1.44883	2.99836	-1.20382	2.21067
1088.000	1.47649	2.97452	-1.14651	2.20475
1089.000	1.45279	3.02215	-1.18406	2.24842
1090.000	1.45279	2.96662	-1.20579	2.25436
1091.000	1.44291	2.95870	-1.16232	2.27624
1092.000	1.46464	2.93289	-1.17220	2.28219
1093.000	1.39549	2.97661	-1.16034	2.24645
1094.000	1.43105	2.92896	-1.17813	2.22260
1095.000	1.41722	2.95477	-1.16232	2.30603
1096.000	1.45871	2.99438	-1.17813	2.27821
1097.000	1.40932	3.00040	-1.14651	2.33384
1098.000	1.43303	2.97458	-1.18208	2.26828
1099.000	1.44883	3.01621	-1.18603	2.25040
1100.000	1.46069	3.01223	-1.19196	2.28614
1101.000	1.45871	3.00430	-1.19987	2.30004
1102.000	1.46662	3.00032	-1.17418	2.29609
1103.000	1.45279	3.08958	-1.17418	2.27424
1104.000	1.47649	2.98444	-1.16429	2.29808
1105.000	1.45081	3.08165	-1.15639	2.26234
1106.000	1.46266	3.03206	-1.17022	2.25439
1107.000	1.49625	3.07961	-1.16825	2.29808
1108.000	1.45081	3.07967	-1.18603	2.33381
1109.000	1.46859	3.09154	-1.20975	2.23847
1110.000	1.46266	3.06577	-1.17418	2.34573
1111.000	1.49230	3.11134	-1.18603	2.29409
1112.000	1.46662	3.10146	-1.20975	2.27819
1113.000	1.47254	3.08162	-1.21172	2.33180
1114.000	1.47452	3.07964	-1.21963	2.29009
1115.000	1.49032	3.08358	-1.19394	2.30004
1116.000	1.47254	3.06774	-1.18801	2.28019
1117.000	1.41129	3.08369	-1.15441	2.35568
1118.000	1.45871	3.06974	-1.20777	2.29010
1119.000	1.41722	3.10153	-1.20579	2.31989
1120.000	1.49230	3.14108	-1.18603	2.34771
1121.000	1.45081	3.08958	-1.16825	2.35566
1122.000	1.42908	3.07970	-1.15639	2.29213
1123.000	1.49032	3.07168	-1.18010	2.30403
1124.000	1.45279	3.16493	-1.17022	2.31198
1125.000	1.42315	3.13126	-1.16825	2.34375
1126.000	1.39154	3.11743	-1.25322	2.26822
1127.000	1.44093	3.13124	-1.22753	2.27618
1128.000	1.43500	3.11142	-1.21963	2.31591
1129.000	1.44883	3.18080	-1.21567	2.22655
1130.000	1.47452	3.15499	-1.20579	2.18683
1131.000	1.44883	3.18873	-1.19394	2.17890
1132.000	1.42710	3.18876	-1.24729	2.22652
1133.000	1.44488	3.21054	-1.24532	2.21659
1134.000	1.45871	3.22837	-1.27693	2.19472
1135.000	1.48637	3.18273	-1.25124	2.24240
1136.000	1.46069	3.26801	-1.21963	2.23647
1137.000	1.45871	3.24026	-1.24334	2.22454
1138.000	1.43500	3.20064	-1.22753	2.24044
1139.000	1.39154	3.22053	-1.24729	2.26624
1140.000	1.38758	3.25622	-1.28088	2.23046
1141.000	1.43896	3.21848	-1.29867	2.28208
1142.000	1.43698	3.28787	-1.23741	2.21461
1143.000	1.41920	3.26609	-1.19789	2.25039
1144.000	1.46859	3.25016	-1.19394	2.24047
1145.000	1.41722	3.28393	-1.22358	2.23846
1146.000	1.44488	3.28389	-1.28286	2.22053
1147.000	1.49428	3.36905	-1.22160	2.24044
1148.000	1.45081	3.33146	-1.28484	2.25628
1149.000	1.45674	3.34136	-1.28088	2.28011
1150.000	1.45081	3.33542	-1.25520	2.25630
1151.000	1.43303	3.36914	-1.25717	2.26623
1152.000	1.42710	3.29779	-1.25124	2.25829
1153.000	1.39746	3.33352	-1.28484	2.28011
1154.000	1.44488	3.30966	-1.28484	2.26621
1155.000	1.43105	3.31365	-1.27891	2.30593
1156.000	1.44093	3.29777	-1.25520	2.30595
1157.000	1.42117	3.27600	-1.26310	2.31587
1158.000	1.42908	3.21255	-1.23544	2.31788
1159.000	1.39351	3.24035	-1.21567	2.36555
1160.000	1.38758	3.19674	-1.23741	2.38936
1161.000	1.46266	3.27594	-1.18603	2.44301
1162.000	1.43698	3.35526	-1.16429	2.46090
1163.000	1.42315	3.31168	-1.11489	2.50462
1164.000	1.43303	3.37905	-1.13070	2.57012
1165.000	1.49032	3.46616	-1.15046	2.61377
1166.000	1.51206	3.46018	-1.17418	2.58000
1167.000	1.49428	3.50578	-1.21567	2.55813
1168.000	1.49823	3.51172	-1.33226	2.55206
1169.000	1.48242	3.51769	-1.32633	2.59375
1170.000	1.46859	3.47412	-1.33028	2.65924
1171.000	1.51008	3.49783	-1.39944	2.62145
1172.000	1.49032	3.50777	-1.38166	2.68498
1173.000	1.56145	3.55322	-1.35399	2.85566
1174.000	1.62269	3.66998	-1.40537	2.79409
1175.000	1.56540	3.41848	-1.46859	2.25809
1176.000	1.74120	3.42610	-1.62466	2.63706
1177.000	1.93672	4.29462	-1.66022	3.44804
1178.000	1.98412	6.16550	-1.56935	4.79939
1179.000	2.01571	8.61110	-1.65232	6.73015
1180.000	1.91895	11.16411	-1.73528	8.45105
1181.000	NaN	NaN	-1.91105	10.36204
1182.000	NaN	NaN	-2.39078	12.43866
1183.000	NaN	NaN	-7.95534	13.83772
1184.000	NaN	NaN	NaN	NaN
1185.000	NaN	NaN	NaN	NaN
1186.000	NaN	NaN	NaN	NaN
1187.000	NaN	NaN	NaN	NaN
1188.000	NaN	NaN	NaN	NaN
1189.000	NaN	NaN	NaN	NaN
1190.000	NaN	NaN	NaN	NaN
1191.000	NaN	NaN	NaN	NaN
1192.000	NaN	NaN	NaN	NaN
1193.000	NaN	NaN	NaN	NaN
1194.000	NaN	NaN	NaN	NaN
1195.000	NaN	NaN	NaN	NaN
1196.000	NaN	NaN	NaN	NaN
1197.000	NaN	NaN	NaN	NaN
1198.000	NaN	NaN	NaN	NaN
1199.000	NaN	NaN	NaN	NaN
1200.000	NaN	NaN	NaN	NaN
1201.000	NaN	NaN	NaN	NaN
1202.000	NaN	NaN	NaN	NaN
1203.000	NaN	NaN	NaN	NaN
1204.000	NaN	NaN	NaN	NaN
1205.000	NaN	NaN	NaN	NaN
1206.000	NaN	NaN	NaN	NaN
1207.000	NaN	NaN	NaN	NaN
1208.000	NaN	NaN	NaN	NaN
1209.000	NaN	NaN	NaN	NaN
1210.000	NaN	NaN	NaN	NaN
1211.000	NaN	NaN	NaN	NaN
1212.000	NaN	NaN	NaN	NaN
1213.000	NaN	NaN	NaN	NaN
1214.000	NaN	NaN	NaN	NaN
1215.000	NaN	NaN	NaN	NaN
1216.000	NaN	NaN	NaN	NaN
1217.000	NaN	NaN	NaN	NaN
1218.000	NaN	NaN	NaN	NaN
1219.000	NaN	NaN	NaN	NaN
1220.000	NaN	NaN	NaN	NaN
1221.000	NaN	NaN	NaN	NaN
1222.000	NaN	NaN	NaN	NaN
1223.000	NaN	NaN	NaN	NaN
1224.000	NaN	NaN	NaN	NaN
1225.000	NaN	NaN	NaN	NaN
1226.000	NaN	NaN	NaN	NaN
1227.000	NaN	NaN	NaN	NaN
1228.000	NaN	NaN	NaN	NaN
1229.000	NaN	NaN	NaN	NaN
1230.000	NaN	NaN	NaN	NaN
1231.000	NaN	NaN	NaN	NaN
1232.000	NaN	NaN	NaN	NaN
1233.000	NaN	NaN	NaN	NaN
1234.000	NaN	NaN	NaN	NaN
1235.000	NaN	NaN	NaN	NaN
1236.000	NaN	NaN	NaN	NaN
1237.000	NaN	NaN	NaN	NaN
1238.000	NaN	NaN	NaN	NaN
1239.000	NaN	NaN	NaN	NaN
1240.000	NaN	NaN	NaN	NaN
1241.000	NaN	NaN	NaN	NaN
1242.000	NaN	NaN	NaN	NaN
1243.000	NaN	NaN	NaN	NaN
1244.000	NaN	NaN	NaN	NaN
1245.000	NaN	NaN	NaN	NaN
1246.000	NaN	NaN	NaN	NaN
1247.000	NaN	NaN	NaN	NaN
1248.000	NaN	NaN	NaN	NaN
1249.000	NaN	NaN	NaN	NaN
1250.000	NaN	NaN	NaN	NaN
1251.000	NaN	NaN	NaN	NaN
1252.000	NaN	NaN	NaN	NaN
1253.000	NaN	NaN	NaN	NaN
1254.000	NaN	NaN	NaN	NaN
1255.000	NaN	NaN	NaN	NaN
1256.000	NaN	NaN	NaN	NaN
1257.000	NaN	NaN	NaN	NaN
1258.000	NaN	NaN	NaN	NaN
1259.000	NaN	NaN	NaN	NaN
1260.000	NaN	NaN	NaN	NaN
1261.000	NaN	NaN	NaN	NaN
1262.000	NaN	NaN	NaN	NaN
1263.000	NaN	NaN	NaN	NaN
1264.000	NaN	NaN	NaN	NaN
1265.000	NaN	NaN	NaN	NaN
1266.000	NaN	NaN	NaN	NaN
1267.000	NaN	NaN	NaN	NaN
1268.000	NaN	NaN	NaN	NaN
1269.000	NaN	NaN	NaN	NaN
1270.000	NaN	NaN	NaN	NaN
1271.000	NaN	NaN	NaN	NaN
1272.000	NaN	NaN	NaN	NaN
1273.000	NaN	NaN	NaN	NaN
1274.000	NaN	NaN	NaN	NaN
1275.000	NaN	NaN	NaN	NaN
1276.000	NaN	NaN	NaN	NaN
1277.000	NaN	NaN	NaN	NaN
1278.000	NaN	NaN	NaN	NaN
1279.000	NaN	NaN	NaN	NaN
1280.000	NaN	NaN	NaN	NaN
1281.000	NaN	NaN	NaN	NaN
1282.000	NaN	NaN	NaN	NaN
1283.000	NaN	NaN	NaN	NaN
1284.000	NaN	NaN	NaN	NaN
1285.000	NaN	NaN	NaN	NaN
1286.000	NaN	NaN	NaN	NaN
1287.000	NaN	NaN	NaN	NaN
1288.000	NaN	NaN	NaN	NaN
1289.000	NaN	NaN	NaN	NaN
1290.000	NaN	NaN	-11.32471	12.78493
1291.000	NaN	NaN	-11.04122	13.37316
1292.000	NaN	NaN	-7.32223	13.77000
1293.000	NaN	NaN	-6.45124	13.30484
1294.000	NaN	NaN	-5.90213	12.84314
1295.000	NaN	NaN	-5.52827	12.48746
1296.000	NaN	NaN	-5.40485	11.99059
1297.000	NaN	NaN	-5.31666	11.57845
1298.000	NaN	NaN	-5.21277	11.03932
1299.000	NaN	NaN	-5.35194	10.53612
1300.000	NaN	NaN	-5.25786	9.96027
1301.000	NaN	NaN	-5.39506	9.48283
1302.000	NaN	NaN	-5.26962	8.95587
1303.000	NaN	NaN	-5.25394	8.54389
1304.000	-1.67207	16.27747	-5.26374	7.96364
1305.000	-2.16576	14.31069	-5.32254	7.45519
1306.000	-2.67689	11.52514	-5.29118	6.97399
1307.000	-2.71634	11.12164	-5.38330	6.48068
1308.000	-2.65519	10.73134	-5.36174	6.03271
1309.000	-2.54273	10.41346	-5.33038	5.62525
1310.000	-2.51905	9.93227	-5.33626	5.20901
1311.000	-2.48156	9.54835	-5.28726	4.88706
1312.000	-2.19340	9.36651	-5.27942	4.46404
1313.000	-2.20919	8.84117	-5.32646	4.15643
1314.000	-2.13220	8.44521	-5.31666	3.80757
1315.000	-2.15787	7.97768	-5.35390	3.55288
1316.000	-2.14405	7.47411	-5.28530	3.26902
1317.000	-2.12233	7.01249	-5.28922	3.03596
1318.000	-2.09666	6.62059	-5.34998	2.75906
1319.000	-2.21117	6.17640	-5.29902	2.56755
1320.000	-2.25460	5.85575	-5.27746	2.35804
1321.000	-2.26841	5.50335	-5.31862	2.14428
1322.000	-2.29013	5.18206	-5.28530	2.00789
1323.000	-2.33158	4.88209	-5.32254	1.90093
1324.000	-2.32565	4.58992	-5.46167	1.96181
1325.000	-2.35131	4.27765	-5.54786	2.00702
1326.000	-2.35131	4.07795	-5.71233	2.04599
1327.000	-2.44012	3.79084	-5.72995	2.03011
1328.000	-2.50722	3.65606	-5.76322	2.07349
1329.000	-2.52300	3.39862	-5.81801	2.15432
1330.000	-2.53879	3.30945	-5.88062	2.45440
1331.000	-2.55852	3.19648	-5.91778	2.47003
1332.000	-2.56641	3.25788	-5.97841	2.78567
1333.000	-2.64927	3.69326	-5.99601	2.89808
1334.000	-2.68281	3.72482	-6.04489	2.97083
1335.000	-2.73607	3.89085	-6.04098	2.98861
1336.000	-2.77552	4.24462	-6.08595	2.99034
1337.000	-2.90765	4.37650	-6.11527	3.00793
1338.000	-2.94117	4.33291	-6.11918	3.03947
1339.000	-3.01018	4.38005	-6.12308	3.08875
1340.000	-2.93920	4.39416	-6.11136	3.10855
1341.000	-3.03384	4.35823	-6.16803	3.12596
1342.000	-3.01412	4.35238	-6.13286	3.14589
1343.000	-3.03187	4.37601	-6.14654	3.13398
1344.000	-3.09298	4.32639	-6.14458	3.16751
1345.000	-3.05947	4.34035	-6.20907	3.11192
1346.000	-3.05552	4.30481	-6.13090	3.16562
1347.000	-3.07918	4.31854	-6.13481	3.23462
1348.000	-3.09298	4.25922	-6.10549	3.18155
1349.000	-3.08904	4.24146	-6.11136	3.19138
1350.000	-3.12846	4.20969	-6.13286	3.14984
1351.000	-3.08509	4.28494	-6.16022	3.13587
1352.000	-3.07721	4.28102	-6.12895	3.14986
1353.000	-3.09692	4.32835	-6.11527	3.09274
1354.000	-3.13043	4.21758	-6.08008	3.17184
1355.000	-3.14817	4.24517	-6.09377	3.16387
1356.000	-3.12649	4.28279	-6.13090	3.12421
1357.000	-3.13437	4.32622	-6.09377	3.13626
1358.000	-3.16000	4.32611	-6.15240	3.14578
1359.000	-3.11269	4.35198	-6.11918	3.19725
1360.000	-3.11269	4.30063	-6.14849	3.15960
1361.000	-3.12452	4.32823	-6.13677	3.18925
1362.000	-3.14620	4.36172	-6.14849	3.17538
1363.000	-3.10481	4.27498	-6.14263	3.18133
1364.000	-3.14620	4.30247	-6.19344	3.20469
1365.000	-3.10481	4.26905	-6.19735	3.25395
1366.000	-3.11269	4.26705	-6.15435	3.21478
1367.000	-3.14423	4.28272	-6.15631	3.22266
1368.000	-3.13043	4.29660	-6.15435	3.18718
1369.000	-3.14226	4.25112	-6.12895	3.23662
1370.000	-3.12846	4.25710	-6.17585	3.24028
1371.000	-3.15211	4.24515	-6.15631	3.17730
1372.000	-3.10481	4.25522	-6.21884	3.21833
1373.000	-3.09889	4.32834	-6.18367	3.25206
1374.000	-3.13043	4.25710	-6.17194	3.28565
1375.000	-3.10875	4.29669	-6.20516	3.21447
1376.000	-3.09495	4.24934	-6.22861	3.22222
1377.000	-3.11860	4.25319	-6.18171	3.19687
1378.000	-3.16788	4.25892	-6.19344	3.20666
1379.000	-3.17774	4.16405	-6.21884	3.11975
1380.000	-3.23489	4.28037	-6.20125	3.16718
1381.000	-3.15211	4.27281	-6.20125	3.15535
1382.000	-3.17182	4.25100	-6.15826	3.17926
1383.000	-3.14620	4.31827	-6.18953	3.16528
1384.000	-3.17576	4.22728	-6.17194	3.21665
1385.000	-3.10283	4.35005	-6.12895	3.15380
1386.000	-3.12255	4.34207	-6.15240	3.17930
1387.000	-3.17774	4.26283	-6.12895	3.12422
1388.000	-3.15211	4.34984	-6.15240	3.17536
1389.000	-3.17576	4.28062	-6.13286	3.21491
1390.000	-3.19547	4.34571	-6.15435	3.20098
1391.000	-3.16985	4.33990	-6.11722	3.19923
1392.000	-3.19350	4.32202	-6.13872	3.19319
1393.000	-3.12452	4.34206	-6.10745	3.19534
1394.000	-3.16000	4.34981	-6.13286	3.20505
1395.000	-3.15605	4.35378	-6.08986	3.24475
1396.000	-3.14817	4.32023	-6.11722	3.15782
1397.000	-3.17576	4.27271	-6.16022	3.21672
1398.000	-3.12649	4.35193	-6.15826	3.19504
1399.000	-3.21715	4.29822	-6.09572	3.23485
1400.000	-3.16985	4.39322	-6.13872	3.21290
1401.000	-3.13043	4.41116	-6.11136	3.28208
1402.000	-3.19153	4.31808	-6.10940	3.26040
1403.000	-3.18759	4.41091	-6.12699	3.21495
1404.000	-3.19350	4.35757	-6.11331	3.22292
1405.000	-3.18562	4.39118	-6.15826	3.22264
1406.000	-3.20730	4.33974	-6.06835	3.21530
1407.000	-3.24080	4.41068	-6.12504	3.19327
1408.000	-3.19941	4.39902	-6.16413	3.16148
1409.000	-3.20730	4.38318	-6.07226	3.22513
1410.000	-3.16000	4.36166	-6.11918	3.28992
1411.000	-3.23489	4.39294	-6.16803	3.20484
1412.000	-3.17379	4.40307	-6.08399	3.22112
1413.000	-3.15408	4.33206	-6.09181	3.29600
1414.000	-3.13634	4.40718	-6.09181	3.21910
1415.000	-3.16000	4.43275	-6.07422	3.26259
1416.000	-3.16197	4.40312	-6.07813	3.29411
1417.000	-3.15803	4.43671	-6.09572	3.22697
1418.000	-3.16000	4.44262	-6.09377	3.24867
1419.000	-3.16985	4.44851	-6.04880	3.27260
1420.000	-3.13634	4.45457	-6.09767	3.29005
1421.000	-3.17971	4.42674	-6.09767	3.24076
1422.000	-3.22306	4.39299	-6.07422	3.23104
1423.000	-3.17182	4.40901	-6.08008	3.23692
1424.000	-3.19153	4.39115	-6.11331	3.28207
1425.000	-3.18168	4.38527	-6.08790	3.22307
1426.000	-3.22504	4.45419	-6.13481	3.18532
1427.000	-3.17182	4.38926	-6.09767	3.19935
1428.000	-3.19744	4.44049	-6.05271	3.17989
1429.000	-3.20533	4.38912	-6.08008	3.22706
1430.000	-3.23292	4.43441	-6.09181	3.24474
1431.000	-3.19941	4.37334	-6.15045	3.22861
1432.000	-3.20533	4.40096	-6.14654	3.27989
1433.000	-3.20533	4.44835	-6.08790	3.25462
1434.000	-3.19350	4.44248	-6.10940	3.22097
1435.000	-3.21912	4.39301	-6.09181	3.22502
1436.000	-3.20533	4.38912	-6.12699	3.17156
1437.000	-3.19744	4.35163	-6.12504	3.19524
1438.000	-3.18956	4.40301	-6.16217	3.24628
1439.000	-3.15605	4.38933	-6.10354	3.27818
1440.000	-3.17379	4.41097	-6.11722	3.22684
1441.000	-3.18168	4.43661	-6.19148	3.20864
1442.000	-3.22898	4.36334	-6.16022	3.20686
1443.000	-3.19153	4.41287	-6.17585	3.21268
1444.000	-3.20139	4.39308	-6.16022	3.21475
1445.000	-3.22306	4.41866	-6.11918	3.22682
1446.000	-3.16197	4.42287	-6.13872	3.22671
1447.000	-3.16985	4.46233	-6.17390	3.26395
1448.000	-3.19350	4.42471	-6.16608	3.20682
1449.000	-3.17182	4.43862	-6.15631	3.26603
1450.000	-3.18168	4.44845	-6.12308	3.21300
1451.000	-3.27036	4.40068	-6.16413	3.25415
1452.000	-3.28415	4.38483	-6.15240	3.17733
1453.000	-3.19941	4.49971	-6.15826	3.26799
1454.000	-3.21321	4.48583	-6.14263	3.24246
1455.000	-3.25657	4.41654	-6.11722	3.24064
1456.000	-3.26839	4.43031	-6.12895	3.25043
1457.000	-3.28415	4.44011	-6.15631	3.26406
1458.000	-3.23292	4.41862	-6.16608	3.25809
1459.000	-3.22898	4.43838	-6.10745	3.23084
1460.000	-3.28021	4.37102	-6.15826	3.25222
1461.000	-3.26642	4.44414	-6.08595	3.25069
1462.000	-3.25854	4.46786	-6.13481	3.31348
1463.000	-3.32356	4.41229	-6.15631	3.28575
1464.000	-3.26445	4.46586	-6.12113	3.24850
1465.000	-3.20730	4.46809	-6.16022	3.27587
1466.000	-3.28810	4.45786	-6.12308	3.28792
1467.000	-3.29204	4.42231	-6.10158	3.26637
1468.000	-3.30583	4.36499	-6.09767	3.26245
1469.000	-3.30583	4.35906	-6.18171	3.31319
1470.000	-3.27627	4.36511	-6.14654	3.34692
1471.000	-3.28218	4.40261	-6.11722	3.30965
1472.000	-3.34721	4.38652	-6.16608	3.31920
1473.000	-3.32553	4.36095	-6.09572	3.31175
1474.000	-3.33341	4.34117	-6.15826	3.38233
1475.000	-3.31765	4.37678	-6.09377	3.33542
1476.000	-3.34918	4.34110	-6.08204	3.39464
1477.000	-3.31962	4.39454	-6.04098	3.35349
1478.000	-3.25854	4.35532	-6.08595	3.34927
1479.000	-3.30189	4.32353	-6.10549	3.35901
1480.000	-3.30583	4.34524	-6.10354	3.34325
1481.000	-3.31568	4.33532	-6.07226	3.38878
1482.000	-3.31371	4.33533	-6.05271	3.33567
1483.000	-3.29007	4.36308	-6.10354	3.35705
1484.000	-3.34918	4.32135	-6.10549	3.43785
1485.000	-3.31962	4.35900	-6.05271	3.40271
1486.000	-3.30583	4.33734	-6.11918	3.36680
1487.000	-3.31765	4.34519	-6.06640	3.37699
1488.000	-3.35509	4.28380	-6.04685	3.39486
1489.000	-3.25657	4.34743	-6.10940	3.39841
1490.000	-3.32159	4.39059	-6.04685	3.41654
1491.000	-3.30977	4.38274	-6.03903	3.42842
1492.000	-3.33933	4.27992	-6.03316	3.37523
1493.000	-3.32947	4.37870	-6.04880	3.39485
1494.000	-3.35706	4.35291	-6.05076	3.33766
1495.000	-3.34130	4.24831	-6.05467	3.40269
1496.000	-3.31765	4.28594	-6.07617	3.40453
1497.000	-3.35115	4.29962	-6.08986	3.39064
1498.000	-3.34524	4.33124	-6.07031	3.37894
1499.000	-3.33736	4.36485	-6.09181	3.39260
1500.000	-3.31174	4.35509	-6.06249	3.39476
1501.000	-3.32553	4.44782	-6.11527	3.44567
1502.000	-3.33736	4.45172	-6.05858	3.44012
1503.000	-3.35706	4.45163	-6.10549	3.46545
1504.000	-3.24080	4.46004	-6.13677	3.34304
1505.000	-3.12255	4.34207	-6.10940	3.25252
1506.000	-3.10086	4.26314	-6.02534	3.09721
1507.000	-3.06341	4.08347	-5.86497	3.01720
1508.000	-2.97863	3.79311	-5.78670	2.98406
1509.000	-2.76565	3.62760	-5.51260	2.79190
1510.000	-2.67492	3.45564	-5.28530	2.65459
1511.000	-2.38486	3.36926	-5.14217	2.46734
1512.000	-2.20130	3.21316	-4.95777	2.14550
1513.000	-2.14010	2.95956	-4.77524	2.04906
1514.000	-1.92290	2.81716	-4.62796	1.89897
1515.000	-1.81823	2.58917	-4.53956	1.84572
1516.000	-1.65429	2.51000	-4.41184	1.74696
1517.000	-1.52589	2.38510	-4.34108	1.50332
1518.000	-1.48440	2.27991	-4.26245	1.23382
1519.000	-1.48440	2.10317	-4.26048	1.16243
1520.000	-1.47649	2.02373	-4.22705	0.96613
1521.000	-1.40734	1.82315	-4.22116	0.97407
1522.000	-1.45476	1.73767	-4.19953	0.93443
1523.000	-1.37573	1.73376	-4.20346	0.97608
1524.000	-1.27496	1.67620	-4.12283	0.98808
1525.000	-1.29076	1.64042	-4.12480	0.97816
1526.000	-1.23346	1.61661	-4.12283	0.97221
1527.000	-1.24532	1.69013	-4.07169	0.98219
1528.000	-1.24532	1.63647	-4.02644	0.96042
1529.000	-1.18010	1.65043	-4.00874	1.01996
1530.000	-1.18208	1.57888	-3.95758	0.97836
1531.000	-1.07734	1.67235	-3.88281	0.97448
1532.000	-1.09117	1.64451	-3.90642	0.95064
1533.000	-1.00224	1.66245	-3.84739	1.00031
1534.000	-1.01212	1.64654	-3.84148	0.99635
1535.000	-1.03979	1.69423	-3.83754	0.98445
1536.000	-1.04769	1.65845	-3.84739	1.00230
1537.000	-1.03188	1.68429	-3.85723	1.02015
1538.000	-1.06351	1.70018	-3.86903	0.98838
1539.000	-1.07141	1.73197	-3.87297	1.08362
1540.000	-1.05560	1.66640	-3.92807	1.06768
1541.000	-1.09908	1.71009	-3.83558	1.11343
1542.000	-1.11094	1.72201	-3.91036	1.00619
1543.000	-1.09513	1.76375	-3.90446	1.06969
1544.000	-1.09908	1.71009	-3.89068	1.01018
1545.000	-1.08524	1.72799	-3.91036	0.97246
1546.000	-1.07932	1.68626	-3.94184	0.92084
1547.000	-1.02200	1.70020	-3.89265	0.91295
1548.000	-1.06548	1.69819	-3.86903	0.89115
1549.000	-1.09710	1.67830	-3.87494	0.87328
1550.000	-1.00817	1.59288	-3.83951	0.84752
1551.000	-1.04967	1.59882	-3.82574	0.86738
1552.000	-1.04967	1.60479	-3.83558	0.83363
1553.000	-1.03781	1.64852	-3.87887	0.82962
1554.000	-1.02793	1.61474	-3.82574	0.85944
1555.000	-1.01805	1.65648	-3.87297	0.87130
1556.000	-1.06548	1.56900	-3.85723	0.81377
1557.000	-1.06943	1.61273	-3.82377	0.81181
1558.000	-1.01410	1.60083	-3.90642	0.83753
1559.000	-1.05165	1.61274	-3.83951	0.82371
1560.000	-1.09908	1.60874	-3.85723	0.81972
1561.000	-1.04177	1.63262	-3.84739	0.85347
1562.000	-1.08327	1.56502	-3.82967	0.88921
1563.000	-1.03386	1.59883	-3.82967	0.82769
1564.000	-1.06153	1.61472	-3.86510	0.86139
1565.000	-1.02398	1.69026	-3.90446	0.79785
1566.000	-1.00026	1.66245	-3.82377	0.87532
1567.000	-1.04572	1.62268	-3.89462	0.84548
1568.000	-1.00026	1.66642	-3.89265	0.90502
1569.000	-1.03386	1.66839	-3.92020	0.85736
1570.000	-0.98247	1.61277	-3.89265	0.88319
1571.000	-1.02398	1.63064	-3.86313	0.90306
1572.000	-1.00817	1.67636	-3.85132	0.94475
1573.000	-1.01805	1.67436	-3.90052	0.88119
1574.000	-1.00421	1.67437	-3.90052	0.80976
1575.000	-0.98643	1.66643	-3.89659	0.87525
1576.000	-0.96666	1.67042	-3.84935	0.90308
1577.000	-1.01805	1.62468	-3.89855	0.94668
1578.000	-1.00619	1.63860	-3.86116	0.90108
1579.000	-0.98643	1.70220	-3.89265	0.91494
1580.000	-1.02003	1.76578	-3.89659	0.88715
1581.000	-0.92713	1.63665	-3.92610	0.93077
1582.000	-1.00817	1.73200	-3.85526	0.94077
1583.000	-0.95876	1.70023	-3.87691	0.93480
1584.000	-0.95678	1.77376	-3.89265	0.96851
1585.000	-0.98840	1.71214	-3.90642	0.93675
1586.000	-1.01410	1.66840	-3.87494	0.92289
1587.000	-0.94690	1.76383	-3.93201	0.90497
1588.000	-0.89551	1.71815	-3.87887	0.88915
1589.000	-0.91923	1.72807	-3.90052	0.93477
1590.000	-0.93899	1.75191	-3.85329	0.98245
1591.000	-0.96073	1.64458	-3.88675	1.01217
1592.000	-1.00026	1.72008	-3.85919	0.91894
1593.000	-0.96864	1.70420	-3.90446	0.93080
1594.000	-0.92911	1.72807	-3.80605	0.98449
1595.000	-0.97457	1.66445	-3.82770	0.92493
1596.000	-0.98050	1.72009	-3.90839	0.95064
1597.000	-0.94097	1.80755	-3.86313	0.92092
1598.000	-0.96271	1.69625	-3.85132	0.94276
1599.000	-0.93504	1.72608	-3.86116	0.95069
1600.000	-0.93109	1.65255	-3.85329	0.88918
1601.000	-0.94295	1.63068	-3.88478	0.78199
1602.000	-0.93504	1.66248	-3.87691	0.92289
1603.000	-0.92911	1.72211	-3.92020	0.91094
1604.000	-0.90342	1.74199	-3.91036	0.90500
1605.000	-0.96469	1.66247	-3.89659	0.94668
1606.000	-0.95283	1.61875	-3.93004	0.92482
1607.000	-0.91527	1.71416	-3.90839	0.98635
1608.000	-0.96469	1.66644	-3.86313	0.90505
1609.000	-0.95678	1.68632	-3.88084	0.91297
1610.000	-0.94295	1.74992	-3.90249	0.91493
1611.000	-0.90737	1.77776	-3.92610	0.90299
1612.000	-0.95480	1.76383	-3.86707	0.93084
1613.000	-1.02200	1.68231	-3.86903	0.89313
1614.000	-0.96073	1.69427	-3.89265	0.92486
1615.000	-0.97259	1.69227	-3.87494	0.91496
1616.000	-0.97852	1.71215	-3.83951	0.94873
1617.000	-0.96469	1.69824	-3.91823	1.00618
1618.000	-0.97062	1.65253	-3.87691	0.90503
1619.000	-1.02398	1.66045	-3.86313	0.92688
1620.000	-1.02595	1.70616	-3.88675	0.92883
1621.000	-0.99829	1.80554	-3.84345	0.91102
1622.000	-1.00619	1.75784	-3.82967	0.90310
1623.000	-0.93899	1.75986	-3.83361	0.91103
1624.000	-0.97852	1.71811	-3.85723	0.89315
1625.000	-0.96073	1.73203	-3.84935	0.88919
1626.000	-0.94097	1.74794	-3.83558	0.91301
1627.000	-0.93109	1.72608	-3.86313	0.88123
1628.000	-0.94492	1.77973	-3.86116	0.86933
1629.000	-0.93702	1.74198	-3.85723	0.88719
1630.000	-0.99236	1.72605	-3.87691	0.83359
1631.000	-1.02991	1.69224	-3.80802	0.86740
1632.000	-0.93504	1.76185	-3.82574	0.85944
1633.000	-0.94097	1.78569	-3.79424	0.84360
1634.000	-0.97259	1.73997	-3.86707	0.83360
1635.000	-0.99236	1.76182	-3.84345	0.90110
1636.000	-0.99433	1.72605	-3.81589	0.90510
1637.000	-1.00817	1.74989	-3.81589	0.86739
1638.000	-0.99631	1.77176	-3.82967	0.89119
1639.000	-1.00619	1.73995	-3.81983	0.85746
1640.000	-0.95678	1.73203	-3.83361	0.87928
1641.000	-1.04769	1.70217	-3.85723	0.85941
1642.000	-0.99631	1.76381	-3.85329	0.85941
1643.000	-0.98643	1.70817	-3.82180	0.82968
1644.000	-1.01014	1.81547	-3.87297	0.82963
1645.000	-0.96666	1.73203	-3.85919	0.93283
1646.000	-0.96864	1.81549	-3.83951	0.95468
1647.000	-1.02398	1.77969	-3.83361	0.94675
1648.000	-1.03188	1.69821	-3.85132	0.92689
1649.000	-0.99236	1.77971	-3.80999	0.97456
1650.000	-1.06351	1.74986	-3.80802	0.90709
1651.000	-1.04769	1.77570	-3.86116	0.87330
1652.000	-1.04177	1.75385	-3.82377	0.95073
1653.000	-1.04177	1.68230	-3.83164	0.92294
1654.000	-1.00224	1.78368	-3.86116	0.90108
1655.000	-1.02003	1.76181	-3.88478	0.93082
1656.000	-1.05955	1.74390	-3.86116	0.91696
1657.000	-1.03584	1.77173	-3.80015	0.87733
1658.000	-1.05165	1.71409	-3.84345	0.89316
1659.000	-1.03781	1.75981	-3.83361	0.88126
1660.000	-1.04967	1.78961	-3.84935	0.91895
1661.000	-1.08129	1.83927	-3.91233	0.87721
1662.000	-1.00619	1.78367	-3.88871	0.93875
1663.000	-0.98445	1.76580	-3.85132	0.92689
1664.000	-1.01410	1.73001	-3.89659	0.91096
1665.000	-0.98050	1.73401	-3.91823	0.94864
1666.000	-0.97062	1.75786	-3.92413	0.89903
1667.000	-0.97457	1.70022	-3.93791	0.92481
1668.000	-0.97259	1.77177	-3.94381	0.89107
1669.000	-1.00619	1.74790	-3.89855	0.90699
1670.000	-1.02398	1.70616	-3.92413	0.90300
1671.000	-0.96666	1.79959	-3.86707	0.86138
1672.000	-0.97259	1.73600	-3.89855	0.90898
1673.000	-1.01805	1.73995	-3.91823	0.91292
1674.000	-0.99829	1.78964	-3.93004	0.92879
1675.000	-1.03584	1.77770	-3.88478	0.88320
1676.000	-0.98840	1.81349	-3.86510	0.90504
1677.000	-0.96073	1.80357	-3.87494	0.89313
1678.000	-1.01212	1.72803	-3.90052	0.95263
1679.000	-1.00224	1.75983	-3.87691	0.99036
1680.000	-1.00421	1.77970	-3.88675	0.94074
1681.000	-1.02200	1.80950	-3.89462	0.95661
1682.000	-1.00619	1.78963	-3.87691	0.96456
1683.000	-0.93504	1.74993	-3.90052	0.91493
1684.000	-0.93899	1.79364	-3.88478	0.95662
1685.000	-0.96469	1.72606	-3.86903	0.88123
1686.000	-1.01212	1.76578	-3.91036	0.88912
1687.000	-1.01014	1.75585	-3.91626	0.94071
1688.000	-0.97852	1.76779	-3.89068	0.88914
1689.000	-0.94097	1.75787	-3.89659	0.87921
1690.000	-0.96073	1.82344	-3.89659	0.83754
1691.000	-0.98840	1.76977	-3.93004	0.85338
1692.000	-1.00817	1.69424	-3.91036	0.98040
1693.000	-1.02991	1.70616	-3.90249	0.92683
1694.000	-0.98050	1.77773	-3.89265	0.92287
1695.000	-0.99433	1.76579	-3.88675	0.87922
1696.000	-1.00026	1.74791	-3.89068	0.97050
1697.000	-1.01212	1.79758	-3.86903	0.95862
1698.000	-0.97259	1.78568	-3.89659	0.94271
1699.000	-1.00817	1.77572	-3.89265	0.92883
1700.000	-0.94690	1.78967	-3.92217	0.90697
1701.000	-0.95085	1.82345	-3.92020	0.90697
1702.000	-0.95480	1.71017	-3.90249	0.90699
1703.000	-0.97654	1.72805	-3.90446	0.88913
1704.000	-1.03781	1.74192	-3.90446	0.90500
1705.000	-1.01805	1.73995	-3.87100	0.94473
1706.000	-1.01607	1.70616	-3.90642	0.95659
1707.000	-0.99236	1.78964	-3.89068	0.93280
1708.000	-1.02398	1.76180	-3.88281	0.91892
1709.000	-1.01805	1.71610	-3.90839	0.92286
1710.000	-1.00224	1.72803	-3.92217	0.89109
1711.000	-1.04769	1.66839	-3.94578	0.97837
1712.000	-1.01014	1.66841	-3.86510	0.86536
1713.000	-1.06746	1.68428	-3.88871	0.92089
1714.000	-1.02991	1.71808	-3.87691	0.91495
1715.000	-1.06943	1.65248	-3.88871	0.93478
1716.000	-1.01410	1.66642	-3.93791	0.91687
1717.000	-1.08129	1.62862	-3.87494	0.96655
1718.000	-1.06943	1.66440	-3.90249	0.96453
1719.000	-1.05560	1.70217	-3.94578	0.90496
1720.000	-1.04374	1.59883	-3.86116	0.91100
1721.000	-1.11094	1.63457	-3.90446	0.90897
1722.000	-1.04177	1.66243	-3.89462	0.94470
1723.000	-1.03781	1.63461	-3.96152	0.91685
1724.000	-1.02200	1.62070	-3.90052	0.93874
1725.000	-1.07536	1.66440	-3.93201	0.92680
1726.000	-1.03188	1.63262	-3.92217	0.88117
1727.000	-1.12477	1.62661	-3.92020	0.94269
1728.000	-1.13070	1.56102	-3.88871	0.98042
1729.000	-1.02793	1.65051	-3.87887	0.96059
1730.000	-1.03188	1.72603	-3.79424	0.95870
1731.000	-0.90539	1.63864	-3.67416	1.03028
1732.000	-0.79470	1.68838	-3.55404	0.98675
1733.000	-0.78087	1.56118	-3.43980	0.90349
1734.000	-0.66029	1.57911	-3.27627	0.87783
1735.000	-0.38749	1.56725	-3.06735	0.97333
1736.000	-0.15816	1.59710	-2.84849	0.94969
1737.000	0.15421	1.62493	-2.57233	0.89030
1738.000	0.39144	1.64477	-2.31973	0.83283
1739.000	0.68994	1.69240	-2.18748	0.91638
1740.000	0.82831	1.62874	-1.93475	0.83900
1741.000	1.10106	1.68227	-1.60293	0.91272
1742.000	1.35795	1.80928	-1.36980	0.86112
1743.000	1.56145	1.80117	-1.20184	0.87111
1744.000	1.67800	1.64609	-1.05955	0.86718
1745.000	1.90908	1.77501	-0.90144	0.92688
1746.000	2.18353	1.82436	-0.64645	0.88517
1747.000	2.28420	1.74083	-0.60889	0.77380
1748.000	2.37697	1.73277	-0.42900	0.80962
1749.000	2.69267	1.84551	-0.30446	0.92499
1750.000	2.75579	1.86526	-0.05931	0.72412
1751.000	2.95103	1.79746	0.06129	0.78379
1752.000	3.00032	1.80334	0.21747	0.85141
1753.000	3.18562	1.89430	0.30643	0.79571
1754.000	3.39646	1.84827	0.39539	0.87924
1755.000	3.50480	1.89765	0.52191	0.86331
1756.000	3.53041	1.91942	0.60692	0.89115
1757.000	3.60721	1.96685	0.68599	0.82152
1758.000	3.64659	2.00048	0.75517	0.94283
1759.000	3.66825	2.01035	0.80656	0.93884
1760.000	3.69778	2.04795	0.87179	1.03229
1761.000	3.72731	2.04392	0.80656	1.02236
1762.000	3.68794	2.00634	0.79866	0.93088
1763.000	3.64856	1.95883	0.81645	1.06810
1764.000	3.63084	1.93705	0.77098	1.05618
1765.000	3.70369	1.87344	0.76901	1.07208
1766.000	3.65250	2.02624	0.75319	1.08203
1767.000	3.57964	1.98476	0.74133	1.09595
1768.000	3.62690	1.95293	0.81249	1.15360
1769.000	3.57570	1.89552	0.75715	1.11981
1770.000	3.63872	1.87159	0.78482	1.11384
1771.000	3.60721	1.86967	0.79866	1.09594
1772.000	3.65447	1.79222	0.77494	1.11384
1773.000	3.66038	1.82990	0.79075	1.13770
1774.000	3.73125	1.83768	0.86191	1.05416
1775.000	3.71550	1.83177	0.82831	1.11979
1776.000	3.74700	1.77617	0.83226	1.06610
1777.000	3.77850	1.77016	0.83028	1.08997
1778.000	3.75881	1.71070	0.84017	1.08996
1779.000	3.81589	1.82561	0.82435	1.05417
1780.000	3.80802	1.76216	0.85598	1.09195
1781.000	3.82770	1.82558	0.82831	1.06610
1782.000	3.86510	1.77394	0.77098	1.09595
1783.000	3.76078	1.74044	0.82040	1.09196
1784.000	3.83361	1.83152	0.77889	1.13174
1785.000	3.77259	1.72654	0.81052	1.09594
1786.000	3.76472	1.78010	0.77494	1.06413
1787.000	3.82967	1.81566	0.78680	1.07805
1788.000	3.81589	1.79388	0.77098	1.12180
1789.000	3.82377	1.84542	0.78680	1.04026
1790.000	3.83951	1.79978	0.73540	1.02238
1791.000	3.82377	1.83749	0.74726	1.06414
1792.000	3.79621	1.79987	0.72552	1.09198
1793.000	3.78637	1.76419	0.70575	1.11187
1794.000	3.83164	1.88308	0.70180	1.00648
1795.000	3.85132	1.79579	0.74133	1.06613
1796.000	3.79818	1.80185	0.66029	0.96074
1797.000	3.83558	1.80970	0.64645	1.06416
1798.000	3.84739	1.83149	0.70575	1.07807
1799.000	3.84739	1.83149	0.60099	0.97667
1800.000	3.82377	1.75618	0.67808	1.00847
1801.000	3.79031	1.80385	0.67610	1.07608
1802.000	3.80999	1.73439	0.68796	1.01244
1803.000	3.82770	1.79782	0.66227	0.97069
1804.000	3.75487	1.83962	0.67610	0.99853
1805.000	3.82377	1.83352	0.64250	1.00251
1806.000	3.85526	1.80768	0.66424	1.09796
1807.000	3.88871	1.84726	0.67017	0.99654
1808.000	3.84935	1.82752	0.66029	1.02438
1809.000	3.78637	1.85740	0.62273	1.08206
1810.000	3.83754	1.82159	0.62668	1.06416
1811.000	3.82770	1.82360	0.64645	1.00848
1812.000	3.83164	1.76212	0.61482	1.06615
1813.000	3.84542	1.76407	0.64645	1.01245
1814.000	3.78637	1.70073	0.57529	0.99656
1815.000	3.85329	1.85527	0.65041	1.03831
1816.000	3.82770	1.74626	0.66029	1.00052
1817.000	3.80408	1.85934	0.64250	0.99853
1818.000	3.83951	1.90884	0.61878	1.04627
1819.000	3.81196	1.79983	0.66820	1.02040
1820.000	3.87100	1.77591	0.62866	0.94086
1821.000	3.86313	1.85327	0.67413	1.02438
1822.000	3.82180	1.87318	0.63459	0.96672
1823.000	3.81589	1.82561	0.65436	1.02836
1824.000	3.92807	1.83528	0.59308	1.00053
1825.000	3.85526	1.80173	0.62866	1.08803
1826.000	3.88281	1.92658	0.61680	1.09399
1827.000	3.86116	1.75809	0.64250	0.97666
1828.000	3.87494	1.83738	0.64250	0.98660
1829.000	3.86510	1.83938	0.61680	1.00252
1830.000	3.85329	1.83742	0.61680	0.98064
1831.000	3.79227	1.77608	0.57133	1.00054
1832.000	3.79818	1.75623	0.65041	1.03433
1833.000	3.85526	1.82949	0.58913	1.01644
1834.000	3.83754	1.77004	0.58913	1.03434
1835.000	3.86313	1.87309	0.58517	0.95479
1836.000	3.81786	1.84940	0.61087	1.01644
1837.000	3.82770	1.85334	0.61285	1.00252
1838.000	3.89659	1.85716	0.61285	0.95678
1839.000	3.87887	1.81159	0.68203	1.04824
1840.000	3.85132	1.87312	0.60296	1.04030
1841.000	3.89659	1.88293	0.62866	0.96871
1842.000	3.82180	1.73437	0.62668	1.03036
1843.000	3.83558	1.89298	0.52982	0.95082
1844.000	3.82180	1.83154	0.61482	0.97269
1845.000	3.86116	1.87508	0.61680	0.98859
1846.000	3.81393	1.89898	0.59901	0.93490
1847.000	3.85526	1.90880	0.57133	1.02042
1848.000	3.82180	1.84344	0.57529	1.00451
1849.000	3.81196	1.95847	0.63262	0.97666
1850.000	3.93988	1.94033	0.59901	1.05422
1851.000	3.85526	1.89294	0.61285	1.01843
1852.000	3.78046	1.89112	0.63459	1.05024
1853.000	3.85919	1.91871	0.61878	1.04030
1854.000	3.87100	1.91273	0.65238	1.06018
1855.000	3.85132	1.87510	0.66622	1.06217
1856.000	3.78046	1.92285	0.58913	1.14570
1857.000	3.87494	1.92462	0.62075	1.10990
1858.000	3.83951	1.93858	0.60692	1.10195
1859.000	3.83558	1.92471	0.59110	1.06019
1860.000	3.84345	1.98020	0.61285	1.11189
1861.000	3.86903	1.90679	0.60099	1.15365
1862.000	3.84935	1.86321	0.62075	1.15365
1863.000	3.86903	1.87903	0.56738	1.08605
1864.000	3.85919	1.91474	0.60692	1.06218
1865.000	3.81196	1.89700	0.66029	1.13376
1866.000	3.85526	1.90682	0.60692	1.14371
1867.000	3.86510	1.90680	0.58320	1.09599
1868.000	3.87887	1.94444	0.59110	1.09002
1869.000	3.84345	1.89098	0.59506	1.06417
1870.000	3.84935	1.92071	0.61087	1.13178
1871.000	3.87494	1.97617	0.61285	1.09598
1872.000	3.84345	1.89297	0.55157	1.09600
1873.000	3.81983	1.94259	0.58913	1.09201
1874.000	3.84935	1.96433	0.57727	1.02042
1875.000	3.82180	1.96043	0.60099	1.02241
1876.000	3.83951	1.94254	0.61285	1.11587
1877.000	3.81589	1.99018	0.60692	1.04030
1878.000	3.85132	1.92071	0.56145	1.06616
1879.000	3.89265	1.96225	0.60692	1.04229
1880.000	3.91233	1.88488	0.65436	1.08007
1881.000	3.89265	1.93449	0.63064	1.08007
1882.000	3.82770	1.92274	0.62273	1.05223
1883.000	3.81196	1.94459	0.65831	1.06614
1884.000	3.90642	1.94635	0.65831	1.15364
1885.000	3.86116	1.94448	0.60692	1.12581
1886.000	3.81393	1.85337	0.66227	1.13773
1887.000	3.86116	1.88698	0.60099	1.08803
1888.000	3.85723	1.94250	0.64843	1.07609
1889.000	3.80802	1.91684	0.64645	1.07808
1890.000	3.85329	1.97225	0.59506	1.07212
1891.000	3.87100	1.93057	0.62471	1.05422
1892.000	3.89068	1.87502	0.63855	1.05024
1893.000	3.81983	1.84741	0.62471	1.12183
1894.000	3.82180	1.89103	0.59110	1.07610
1895.000	3.84345	1.90090	0.61087	1.11189
1896.000	3.90839	1.93644	0.62668	1.11388
1897.000	3.84542	1.90684	0.61087	1.12184
1898.000	3.87494	1.85721	0.64448	1.13774
1899.000	3.92807	1.90665	0.65238	1.16160
1900.000	3.90642	1.92256	0.63262	1.08007
1901.000	3.87100	1.90480	0.62471	1.07013
1902.000	3.88084	1.89685	0.56936	1.11588
1903.000	3.86510	1.93852	0.60296	1.12581
1904.000	3.85723	1.90285	0.58517	1.08803
1905.000	3.91036	1.91462	0.63064	1.15166
1906.000	3.82377	1.85930	0.59901	1.13377
1907.000	3.87100	1.87704	0.62471	1.09598
1908.000	3.86313	1.89887	0.64645	1.07808
1909.000	3.85526	1.88897	0.64448	1.10791
1910.000	3.89659	1.92853	0.66820	1.13972
1911.000	3.87887	1.94047	0.58320	1.12184
1912.000	3.93201	1.91854	0.59506	1.13178
1913.000	3.92020	1.87098	0.59901	1.12581
1914.000	3.91233	1.93048	0.62075	1.10990
1915.000	3.95758	1.86495	0.60099	1.09201
1916.000	3.84739	1.88106	0.61285	1.18547
1917.000	3.90249	1.91861	0.60099	1.16956
1918.000	3.91823	1.99589	0.59110	1.13974
1919.000	3.92610	1.94433	0.58320	1.13178
1920.000	3.95168	1.98788	0.61878	1.15962
1921.000	3.90052	1.91861	0.67215	1.18347
1922.000	3.91823	1.99192	0.59308	1.12979
1923.000	3.92807	1.98001	0.63855	1.10791
1924.000	3.94184	1.95222	0.58715	1.05820
1925.000	3.96545	2.03145	0.56936	1.12781
1926.000	3.89265	1.99991	0.53773	1.00054
1927.000	3.86313	1.99602	0.45865	1.02641
1928.000	3.78046	1.96845	0.39935	1.02641
1929.000	3.71747	1.90514	0.38156	1.09403
1930.000	3.63281	1.94895	0.40528	0.95880
1931.000	3.64659	1.95883	0.32818	1.00455
1932.000	3.50874	2.01070	0.27480	1.12984
1933.000	3.43783	1.95134	0.16014	1.06024
1934.000	3.38464	1.94550	0.15223	1.11991
1935.000	3.35706	2.03482	0.12060	1.14576
1936.000	3.32553	2.01108	0.05733	1.11792
1937.000	3.29795	2.03296	0.05536	1.16366
1938.000	3.35509	2.05466	0.08897	1.15570
1939.000	3.33538	2.03288	0.09094	1.24718
1940.000	3.26445	1.98343	0.06920	1.24519
1941.000	3.37479	2.07048	0.05733	1.28098
1942.000	3.39843	1.95539	0.00791	1.18554
1943.000	3.42207	2.02873	0.05536	1.22531
1944.000	3.38070	2.02287	0.08501	1.20144
1945.000	3.41616	1.98709	0.09885	1.23724
1946.000	3.43192	2.02078	0.10280	1.20940
1947.000	3.46147	2.01873	0.13246	1.18553
1948.000	3.44571	2.06240	0.12257	1.20940
1949.000	3.45359	1.99495	0.08106	1.26905
1950.000	3.47526	2.01275	0.14630	1.22530
1951.000	3.44177	2.03067	0.13048	1.19746
1952.000	3.41616	2.00693	0.13641	1.22133
1953.000	3.48314	2.04843	0.13641	1.18553
1954.000	3.46935	1.96516	0.15025	1.22530
1955.000	3.45556	1.96519	0.11862	1.17360
1956.000	3.44768	1.97909	0.15421	1.14775
1957.000	3.36691	1.97926	0.12850	1.19746
1958.000	3.44374	2.01877	0.15618	1.21337
1959.000	3.41419	1.98313	0.12060	1.18752
1960.000	3.39252	1.94945	0.14037	1.20144
1961.000	3.39843	2.00101	0.14037	1.15173
1962.000	3.40434	1.94943	0.07315	1.25116
1963.000	3.37282	1.98520	0.10676	1.21934
1964.000	3.36100	1.93563	0.11269	1.26905
1965.000	3.43783	2.03861	0.12257	1.22331
1966.000	3.36888	2.05264	0.10083	1.20144
1967.000	3.48117	2.01670	0.12060	1.20940
1968.000	3.38858	1.93557	0.13641	1.15570
1969.000	3.38661	2.01294	0.11862	1.23127
1970.000	3.41025	2.02281	0.13048	1.20741
1971.000	3.42010	1.99105	0.14630	1.20343
1972.000	3.34327	2.02493	0.10478	1.18156
1973.000	3.39449	2.00895	0.16211	1.19945
1974.000	3.40828	2.01488	0.12455	1.22729
1975.000	3.34918	2.02095	0.16607	1.22729
1976.000	3.40040	1.98514	0.11862	1.26905
1977.000	3.41419	1.98114	0.07117	1.27701
1978.000	3.42601	1.97914	0.13444	1.19746
1979.000	3.39646	1.96333	0.05338	1.18752
1980.000	3.39646	1.95738	0.11862	1.23525
1981.000	3.42404	2.07038	0.07908	1.25911
1982.000	3.40631	2.02083	0.16014	1.20740
1983.000	3.35509	2.02887	0.17002	1.21536
1984.000	3.37676	1.98122	0.12257	1.26110
1985.000	3.41813	1.93551	0.15816	1.28694
1986.000	3.37282	1.96139	0.09490	1.28695
1987.000	3.41222	2.06247	0.14037	1.31677
1988.000	3.36691	2.01893	0.14037	1.25911
1989.000	3.40631	1.90380	0.07908	1.30484
1990.000	3.42995	1.97318	0.13641	1.27700
1991.000	3.45753	1.99295	0.11071	1.32473
1992.000	3.43980	2.00886	0.11467	1.34461
1993.000	3.42404	2.02873	0.11862	1.42016
1994.000	3.38858	1.97723	0.10280	1.40028
1995.000	3.40631	1.96529	0.10478	1.37642
1996.000	3.43192	2.02276	0.16607	1.28098
1997.000	3.41025	1.99504	0.21352	1.36846
1998.000	3.41419	1.95139	0.13641	1.34660
1999.000	3.42995	1.96128	0.14432	1.29888
2000.000	3.41813	2.01486	0.18979	1.38039
2001.000	3.42995	2.03863	0.18781	1.33466
2002.000	3.45359	2.00486	0.13048	1.42215
2003.000	3.38661	1.94351	0.12060	1.35654
2004.000	3.44374	1.96918	0.14432	1.36449
2005.000	3.41616	1.92163	0.11467	1.33268
2006.000	3.44177	1.97712	0.13641	1.35654
2007.000	3.42404	1.96724	0.17595	1.36051
2008.000	3.38464	2.00104	0.15223	1.34063
2009.000	3.44177	1.91563	0.16409	1.34858
2010.000	3.45359	1.90569	0.13048	1.33666
2011.000	3.45359	2.04651	0.11862	1.34660
2012.000	3.44177	1.96324	0.16804	1.34262
2013.000	3.42798	1.93351	0.14234	1.31478
2014.000	3.38267	1.86218	0.13641	1.28098
2015.000	3.46344	1.98104	0.14827	1.29689
2016.000	3.39055	1.93557	0.12653	1.26308
2017.000	3.41025	1.95537	0.08501	1.30484
2018.000	3.34130	1.84639	0.11664	1.27502
2019.000	3.40828	1.92363	0.05536	1.19150
2020.000	3.44571	1.94339	0.12060	1.22530
2021.000	3.40237	1.91968	0.10478	1.24519
2022.000	3.36100	1.80469	0.12257	1.17161
2023.000	3.42010	1.96725	0.11862	1.15769
2024.000	3.37085	1.92569	0.10478	1.16565
2025.000	3.39252	1.92565	0.08501	1.18951
2026.000	3.41616	1.83831	0.08303	1.19150
2027.000	3.43192	1.85019	0.13641	1.14775
2028.000	3.44965	1.93743	0.11664	1.19746
2029.000	3.42404	1.85615	0.11467	1.16167
2030.000	3.38858	1.91970	0.10676	1.19150
2031.000	3.40040	1.84231	0.08699	1.10400
2032.000	3.45753	1.98304	0.07117	1.11991
2033.000	3.44768	1.93347	0.05733	1.12786
2034.000	3.40040	1.90579	0.02175	1.17957
2035.000	3.41419	1.93751	0.09292	1.14377
2036.000	3.42207	1.88790	0.01186	1.14179
2037.000	3.38661	1.87210	0.07513	1.12985
2038.000	3.42601	1.95137	0.01186	1.17758
2039.000	3.41419	1.87006	0.10280	1.13980
2040.000	3.44374	1.91959	0.05536	1.13383
2041.000	3.44965	1.90966	0.08699	1.13184
2042.000	3.41616	1.89584	0.04745	1.11196
2043.000	3.50283	1.89369	0.03756	1.13781
2044.000	3.44965	1.82238	0.07513	1.09207
2045.000	3.41616	1.81649	0.05536	1.08809
2046.000	3.42798	1.84821	0.05338	1.13781
2047.000	3.41222	1.93354	0.02372	1.18752
2048.000	3.47526	1.91755	0.06722	1.14974
2049.000	3.41222	1.95139	0.03559	1.22729
2050.000	3.48117	1.96910	0.01186	1.14179
2051.000	3.43192	1.89185	0.12257	1.18156
2052.000	3.44965	1.92752	0.08303	1.19548
2053.000	3.45556	1.98106	0.06722	1.17360
2054.000	3.47132	1.95127	-0.00198	1.15769
2055.000	3.37282	1.93759	0.02966	1.15173
2056.000	3.43586	1.93548	0.06722	1.21139
2057.000	3.53041	1.94322	0.07710	1.25116
2058.000	3.43783	1.96721	0.11467	1.15769
2059.000	3.49101	1.92941	0.17595	1.26308
2060.000	3.56586	1.90943	0.28073	1.29290
2061.000	3.66825	1.94689	0.33411	1.34658
2062.000	3.73913	2.08553	0.49622	1.56723
2063.000	3.93397	2.17622	0.55354	1.56920
2064.000	4.00480	2.15820	0.66424	1.48369
2065.000	4.26834	2.21493	0.83621	1.68439
2066.000	4.35877	2.24636	1.03386	1.65647
2067.000	4.51991	2.51315	1.17220	1.87498
2068.000	4.82824	2.69207	1.37178	1.92649
2069.000	4.90871	2.78469	1.63256	2.06926
2070.000	5.18531	2.95545	1.74713	2.16049
2071.000	5.42641	3.15969	1.82811	2.23187
2072.000	5.58115	3.21216	2.03743	2.34673
2073.000	5.70841	3.15620	2.12036	2.40019
2074.000	5.84540	3.16925	2.28815	2.42968
2075.000	6.06640	3.21728	2.50524	2.40747
2076.000	6.21493	3.42138	2.59206	2.39343
2077.000	6.27549	3.45842	2.64927	2.35364
2078.000	6.38486	3.38086	2.67886	2.36350
2079.000	6.42000	3.37669	2.75185	2.44270
2080.000	6.49613	3.46088	2.75579	2.50220
2081.000	6.57223	3.51745	2.73607	2.48836
2082.000	6.61906	3.53090	2.81891	2.56553
2083.000	6.62296	3.64307	2.80905	2.51399
2084.000	6.62101	3.57223	2.81693	2.58338
2085.000	6.65612	3.65661	2.79327	2.59929
2086.000	6.55858	3.72228	2.90765	2.65653
2087.000	6.55077	3.78334	2.89385	2.70613
2088.000	6.50589	3.64393	2.86229	2.80731
2089.000	6.54882	3.67314	2.82877	2.77369
2090.000	6.48637	3.64013	2.82285	2.80344
2091.000	6.48247	3.58503	2.87215	2.81323
2092.000	6.50784	3.48640	2.86229	2.86280
2093.000	6.54687	3.50385	2.86032	2.75974
2094.000	6.46685	3.43153	2.88399	2.67840
2095.000	6.50003	3.51402	2.84454	2.73797
2096.000	6.48052	3.50628	2.85243	2.80337
2097.000	6.51174	3.53166	2.85638	2.75776
2098.000	6.44733	3.50257	2.87413	2.73790
2099.000	6.49808	3.57508	2.85046	2.80139
2100.000	6.57223	3.52927	2.86229	2.77361
2101.000	6.54492	3.57868	2.90962	2.72592
2102.000	6.56443	3.69665	2.87610	2.78150
2103.000	6.62881	3.65878	2.85835	2.74785
2104.000	6.66002	3.63690	2.88399	2.81915
2105.000	6.71462	3.70930	2.88201	2.80924
2106.000	6.65807	3.65659	2.91357	2.73780
2107.000	6.61320	3.70022	2.94314	2.85665
2108.000	6.64637	3.64684	2.89976	2.80325
2109.000	6.61516	3.68840	2.89187	2.77155
2110.000	6.63076	3.72370	2.87413	2.76367
2111.000	6.68147	3.75087	2.85638	2.80930
2112.000	6.68537	3.72919	2.80707	2.77770
2113.000	6.61906	3.64310	2.83074	2.80540
2114.000	6.67757	3.61905	2.88990	2.79534
2115.000	6.65612	3.67038	2.85243	2.76967
2116.000	6.71267	3.65815	2.87807	2.79537
2117.000	6.59565	3.72594	2.87610	2.76763
2118.000	6.71072	3.71720	2.86427	2.78351
2119.000	6.73802	3.78978	2.84060	2.77564
2120.000	6.67757	3.70367	2.87807	2.70220
2121.000	6.68147	3.75283	2.83271	2.73007
2122.000	6.73217	3.71113	2.85441	2.70821
2123.000	6.72437	3.73677	2.87018	2.69429
2124.000	6.64832	3.74718	2.82088	2.70828
2125.000	6.66977	3.69193	2.82088	2.74992
2126.000	6.67562	3.63088	2.82482	2.62698
2127.000	6.68147	3.72529	2.84060	2.73798
2128.000	6.67367	3.69583	2.77354	2.68064
2129.000	6.68732	3.80197	2.84060	2.69436
2130.000	6.70682	3.69165	2.83666	2.68842
2131.000	6.65807	3.77072	2.84849	2.65865
2132.000	6.71852	3.64827	2.81102	2.74796
2133.000	6.74387	3.76809	2.80905	2.72021
2134.000	6.67952	3.70169	2.78538	2.66078
2135.000	6.76532	3.72858	2.80313	2.73410
2136.000	6.71657	3.74273	2.82285	2.73207
2137.000	6.74777	3.70117	2.78932	2.75396
2138.000	6.75752	3.71684	2.75579	2.67869
2139.000	6.69707	3.76255	2.81299	2.74201
2140.000	6.65222	3.75109	2.81299	2.70434
2141.000	6.69707	3.70156	2.81299	2.77174
2142.000	6.70097	3.68185	2.82482	2.70035
2143.000	6.67757	3.75286	2.84849	2.68641
2144.000	6.74582	3.69922	2.84257	2.67850
2145.000	6.68342	3.66427	2.83863	2.64480
2146.000	6.70682	3.64245	2.84652	2.67056
2147.000	6.71072	3.72703	2.80313	2.73806
2148.000	6.74777	3.74249	2.82285	2.67458
2149.000	6.64637	3.76884	2.85835	2.66260
2150.000	6.68927	3.66423	2.87610	2.72996
2151.000	6.71462	3.70536	2.85046	2.69037
2152.000	6.74582	3.75431	2.86229	2.73991
2153.000	6.70682	3.73297	2.81693	2.72019
2154.000	6.68147	3.68987	2.82482	2.70035
2155.000	6.68342	3.77839	2.88201	2.69426
2156.000	6.76532	3.71284	2.82877	2.75386
2157.000	6.69122	3.61502	2.87807	2.65264
2158.000	6.69902	3.64842	2.83074	2.69637
2159.000	6.64051	3.67640	2.85243	2.72804
2160.000	6.66977	3.72538	2.79129	2.74404
2161.000	6.62491	3.66077	2.87018	2.70817
2162.000	6.66587	3.62308	2.84652	2.66262
2163.000	6.64051	3.70395	2.81496	2.71226
2164.000	6.59760	3.71805	2.80905	2.72021
2165.000	6.68147	3.69774	2.81299	2.75588
2166.000	6.67562	3.68795	2.87413	2.70419
2167.000	6.67172	3.68207	2.85243	2.71218
2168.000	6.68342	3.68002	2.87018	2.77557
2169.000	6.66197	3.70969	2.85243	2.74588
2170.000	6.65222	3.69009	2.80116	2.71824
2171.000	6.60150	3.64323	2.83074	2.73007
2172.000	6.69707	3.64056	2.79524	2.71033
2173.000	6.63856	3.64690	2.85835	2.71414
2174.000	6.67562	3.62891	2.82482	2.75586
2175.000	6.63271	3.73943	2.81891	2.72613
2176.000	6.67757	3.61905	2.85638	2.70820
2177.000	6.60150	3.71212	2.85835	2.66458
2178.000	6.68147	3.74103	2.81299	2.70037
2179.000	6.60540	3.58809	2.80707	2.70237
2180.000	6.63661	3.69414	2.91357	2.71005
2181.000	6.70487	3.73298	2.83863	2.71419
2182.000	6.63661	3.69414	2.81891	2.74794
2183.000	6.64637	3.68423	2.83468	2.67653
2184.000	6.66392	3.59947	2.86821	2.75179
2185.000	6.64832	3.69996	2.83468	2.74592
2186.000	6.66587	3.61520	2.87413	2.73790
2187.000	6.68342	3.71740	2.78143	2.78768
2188.000	6.65027	3.69010	2.78538	2.67268
2189.000	6.68147	3.72332	2.82680	2.72017
2190.000	6.65612	3.66251	2.85638	2.71018
2191.000	6.65612	3.67432	2.82877	2.69637
2192.000	6.63661	3.63117	2.82680	2.76576
2193.000	6.61320	3.65889	2.81891	2.78759
2194.000	6.68147	3.62887	2.83074	2.81135
2195.000	6.58979	3.61182	2.82285	2.80938
2196.000	6.64637	3.59173	2.83666	2.85098
2197.000	6.67172	3.64468	2.85638	2.84894
2198.000	6.60735	3.63532	2.86032	2.82713
2199.000	6.65807	3.59164	2.85046	2.81725
2200.000	6.61320	3.60969	2.81496	2.77570
2201.000	6.66782	3.51874	2.86032	2.84101
2202.000	6.59565	3.49563	2.87610	2.81520
2203.000	6.61906	3.57421	2.84849	2.92230
2204.000	6.56248	3.50177	2.90962	2.83890
2205.000	6.63076	3.59184	2.92145	2.90626
2206.000	6.60735	3.51917	2.90962	2.88449
2207.000	6.62101	3.56042	2.89187	2.83895
2208.000	6.64441	3.51300	2.87610	2.90241
2209.000	6.63856	3.56226	2.88004	2.87663
2210.000	6.52150	3.54931	2.85046	2.86085
2211.000	6.63271	3.59183	2.87215	2.89053
2212.000	6.59565	3.49366	2.85835	2.90047
2213.000	6.62101	3.57617	2.89385	2.96974
2214.000	6.57223	3.57455	2.84652	2.87870
2215.000	6.62101	3.51711	2.93920	2.83090
2216.000	6.66782	3.58567	2.85441	2.84895
2217.000	6.60150	3.58615	2.89779	2.84488
2218.000	6.70292	3.59919	2.88596	2.85680
2219.000	6.68927	3.64455	2.95103	2.81898
2220.000	6.66002	3.60147	2.92737	2.79327
2221.000	6.61711	3.58407	2.89779	2.74775
2222.000	6.63076	3.56232	2.88004	2.78149
2223.000	6.59565	3.63147	2.91751	2.75761
2224.000	6.64051	3.66263	2.93131	2.81506
2225.000	6.64441	3.62520	2.89385	2.76560
2226.000	6.60930	3.56247	2.89976	2.75171
2227.000	6.61711	3.61556	2.88399	2.76563
2228.000	6.63076	3.63121	2.93328	2.68026
2229.000	6.69317	3.61107	2.88399	2.72201
2230.000	6.64637	3.61535	2.87610	2.73987
2231.000	6.65417	3.65859	2.88990	2.72795
2232.000	6.62491	3.59779	2.93526	2.69017
2233.000	6.70682	3.64049	2.91159	2.73582
2234.000	6.65417	3.58577	2.93723	2.78333
2235.000	6.62296	3.65488	2.88990	2.73984
2236.000	6.66392	3.68213	2.85638	2.69631
2237.000	6.64051	3.65672	2.92342	2.68227
2238.000	6.69317	3.60910	2.90765	2.72790
2239.000	6.71267	3.57353	2.89187	2.71010
2240.000	6.65417	3.68614	2.89385	2.71010
2241.000	6.66782	3.63487	2.88004	2.68436
2242.000	6.66002	3.64083	2.88399	2.64668
2243.000	6.67952	3.67414	2.89582	2.71802
2244.000	6.72242	3.72891	2.88004	2.75572
2245.000	6.70292	3.68577	2.88990	2.65261
2246.000	6.61516	3.57030	2.88793	2.67442
2247.000	6.69902	3.73106	2.90371	2.68033
2248.000	6.67952	3.64659	2.91159	2.68032
2249.000	6.62491	3.60566	2.86821	2.72403
2250.000	6.71267	3.62273	2.85835	2.72406
2251.000	6.65612	3.64873	2.87610	2.70816
2252.000	6.66587	3.61914	2.83863	2.74591
2253.000	6.69512	3.63664	2.89385	2.70811
2254.000	6.72047	3.62661	2.92540	2.69614
2255.000	6.57809	3.58632	2.87807	2.66652
2256.000	6.71657	3.63845	2.83666	2.70230
2257.000	6.69902	3.62480	2.89976	2.71008
2258.000	6.67562	3.57183	2.88201	2.71409
2259.000	6.64637	3.61732	2.88793	2.70813
2260.000	6.66197	3.62704	2.85243	2.71019
2261.000	6.74972	3.65197	2.89779	2.66251
2262.000	6.69512	3.60318	2.85046	2.74985
2263.000	6.68732	3.63079	2.84060	2.70824
2264.000	6.66587	3.54632	2.85638	2.80336
2265.000	6.69707	3.64646	2.84849	2.72606
2266.000	6.68927	3.65242	2.90173	2.71008
2267.000	6.66782	3.57189	2.86821	2.80927
2268.000	6.73997	3.66779	2.84060	2.75978
2269.000	6.68342	3.65444	2.85638	2.64872
2270.000	6.69902	3.65038	2.87413	2.67049
2271.000	6.73022	3.69737	2.84060	2.69040
2272.000	6.69317	3.70356	2.83863	2.69238
2273.000	6.69317	3.65436	2.92342	2.65848
2274.000	6.66002	3.78841	2.88004	2.75572
2275.000	6.70682	3.66410	2.83271	2.76971
2276.000	6.72047	3.74663	2.87610	2.69824
2277.000	6.70487	3.72708	2.87018	2.75971
2278.000	6.70877	3.66605	2.81891	2.71622
2279.000	6.79066	3.71265	2.80905	2.75193
2280.000	6.75362	3.71097	2.84454	2.69237
2281.000	6.71657	3.74863	2.82680	2.66862
2282.000	6.81990	3.73603	2.87215	2.66455
2283.000	6.76337	3.70892	2.87215	2.61101
2284.000	6.63856	3.66067	2.86624	2.69827
2285.000	6.71657	3.74273	2.86229	2.70819
2286.000	6.70097	3.69169	2.80905	2.68056
2287.000	6.70487	3.75462	2.85046	2.73994
2288.000	6.71462	3.75455	2.81496	2.72218
2289.000	6.60345	3.79672	2.86427	2.83109
2290.000	6.64051	3.77676	2.93723	2.82298
2291.000	6.70292	3.64051	3.05947	2.81077
2292.000	6.85303	3.68463	3.16591	2.86003
2293.000	7.00694	3.61460	3.30386	2.85171
2294.000	7.10625	3.51157	3.47723	2.79375
2295.000	7.25804	3.43175	3.70763	2.65241
2296.000	7.43306	3.25739	3.93397	2.70915
2297.000	7.66233	3.42269	4.21132	2.71217
2298.000	7.80015	3.15833	4.49437	2.61418
2299.000	8.10460	3.11868	4.71633	2.61337
2300.000	8.25375	3.18425	4.90283	2.50385
2301.000	8.49370	3.03123	5.09314	2.35477
2302.000	8.73141	3.09796	5.44796	2.28423
2303.000	9.04404	3.13842	5.69080	2.24375
2304.000	9.28297	3.04039	5.88257	2.20743
2305.000	9.51004	3.06774	6.15631	2.12534
2306.000	9.70416	3.02297	6.46685	2.22868
2307.000	9.97861	2.86217	6.69317	2.20596
2308.000	10.20090	2.95590	6.87252	2.12822
2309.000	10.31576	2.80254	7.04200	2.20829
2310.000	10.63882	2.78597	7.36891	2.05105
2311.000	10.82585	2.72187	7.58852	2.02835
2312.000	11.11738	2.70361	7.70504	1.99433
2313.000	11.30380	2.63958	7.91268	2.07206
2314.000	11.53174	2.55965	8.16660	1.94882
2315.000	11.79910	2.62715	8.32151	1.95199
2316.000	11.93732	2.60640	8.43567	1.92783
2317.000	12.11887	2.42021	8.63095	1.82271
2318.000	12.33225	2.42020	8.77969	1.68056
2319.000	12.45295	2.44429	8.95147	1.69941
2320.000	12.54717	2.34066	9.01898	1.75013
2321.000	12.72976	2.20336	9.12115	1.69076
2322.000	12.82566	2.24514	9.22135	1.67458
2323.000	12.90645	2.35477	9.36575	1.61701
2324.000	12.99658	2.40423	9.48119	1.66941
2325.000	13.14103	2.21328	9.54850	1.73965
2326.000	13.11478	2.25221	9.72913	1.68190
2327.000	13.29841	2.27178	9.75217	1.69746
2328.000	13.39199	2.31534	9.83472	1.69704
2329.000	13.45746	2.28380	9.91148	1.74559
2330.000	13.49111	2.36653	9.89613	1.67910
2331.000	13.46307	2.37260	9.93258	1.71024
2332.000	13.45746	2.41322	9.97286	1.61801
2333.000	13.48363	2.35309	9.89997	1.69279
2334.000	13.40509	2.43113	9.90380	1.70256
2335.000	13.39199	2.34819	9.86543	1.61463
2336.000	13.42005	2.39041	9.87502	1.65962
2337.000	13.37328	2.38315	9.85008	1.63625
2338.000	13.36580	2.38129	9.79249	1.65808
2339.000	13.36205	2.29824	9.77905	1.66990
2340.000	13.37702	2.27491	9.80017	1.64433
2341.000	13.43689	2.23184	9.76945	1.61705
2342.000	13.42380	2.24741	9.86159	1.55197
2343.000	13.42941	2.26089	9.84240	1.66762
2344.000	13.48550	2.27774	9.85775	1.60879
2345.000	13.44063	2.27624	9.85583	1.58530
2346.000	13.49298	2.22938	9.85200	1.59903
2347.000	13.50420	2.27756	9.78289	1.59348
2348.000	13.48737	2.26227	9.80785	1.58553
2349.000	13.53410	2.19230	9.77713	1.57784
2350.000	13.53597	2.31202	9.78673	1.63460
2351.000	13.54531	2.23469	9.89229	1.59491
2352.000	13.48363	2.33957	9.80401	1.53657
2353.000	13.46681	2.26247	9.76561	1.65234
2354.000	13.49485	2.30662	9.80593	1.63451
2355.000	13.58081	2.28069	9.83856	1.56579
2356.000	13.53223	2.24060	9.75985	1.65236
2357.000	13.50794	2.22538	9.81553	1.62075
2358.000	13.54718	2.27329	9.81169	1.65994
2359.000	13.59202	2.27093	9.85775	1.62837
2360.000	13.55092	2.31767	9.85967	1.60682
2361.000	13.50794	2.29877	9.81169	1.63252
2362.000	13.49672	2.28922	9.78481	1.63853
2363.000	13.51728	2.29675	9.80785	1.60512
2364.000	13.60136	2.28243	9.77905	1.67382
2365.000	13.52289	2.25228	9.82896	1.62460
2366.000	13.51354	2.25237	9.79825	1.62083
2367.000	13.56213	2.28280	9.80017	1.63453
2368.000	13.55092	2.28870	9.75601	1.63475
2369.000	13.50794	2.30457	9.77713	1.61114
2370.000	13.51541	2.28711	9.81361	1.58354
2371.000	13.57334	2.28849	9.77713	1.59351
2372.000	13.50233	2.31814	9.81553	1.58549
2373.000	13.55092	2.30029	9.76561	1.54459
2374.000	13.49111	2.35108	9.79057	1.55231
2375.000	13.55839	2.27125	9.79825	1.54639
2376.000	13.53597	2.31202	9.76753	1.58964
2377.000	13.50420	2.33357	9.81169	1.51107
2378.000	13.50794	2.30263	9.81745	1.52672
2379.000	13.49298	2.36458	9.79057	1.57386
2380.000	13.51728	2.33924	9.72144	1.61141
2381.000	13.53784	2.37379	9.74065	1.62307
2382.000	13.48363	2.38978	9.77137	1.64251
2383.000	13.54344	2.37953	9.73105	1.61920
2384.000	13.49111	2.41095	9.73297	1.63878
2385.000	13.55466	2.33501	9.70800	1.65262
2386.000	13.53036	2.40090	9.71184	1.56443
2387.000	13.49859	2.36066	9.70800	1.66242
2388.000	13.48737	2.33760	9.65997	1.63326
2389.000	13.55652	2.30989	9.72336	1.64079
2390.000	13.49672	2.30661	9.72144	1.62512
2391.000	13.52102	2.29092	9.72913	1.67211
2392.000	13.52102	2.32954	9.74257	1.60543
2393.000	13.47616	2.28556	9.73873	1.69165
2394.000	13.53597	2.27919	9.72144	1.62317
2395.000	13.55279	2.32730	9.72336	1.64275
2396.000	13.50607	2.42624	9.70032	1.69772
2397.000	13.50046	2.35485	9.69839	1.67422
2398.000	13.45372	2.28191	9.71760	1.66237
2399.000	13.55092	2.38524	9.70416	1.72709
2400.000	13.45185	2.38817	9.65037	1.71953
2401.000	13.52849	2.32175	9.67150	1.70767
2402.000	13.51915	2.38170	9.68111	1.67823
2403.000	13.50046	2.36258	9.68303	1.72132
2404.000	13.47990	2.26041	9.63499	1.69609
2405.000	13.51915	2.29480	9.70608	1.71729
2406.000	13.50046	2.39154	9.67918	1.71155
2407.000	13.46494	2.26248	9.63499	1.76272
2408.000	13.52476	2.21557	9.69839	1.73692
2409.000	13.51541	2.37401	9.67534	1.71940
2410.000	13.52289	2.28704	9.70224	1.76628
2411.000	13.46494	2.30112	9.70608	1.70945
2412.000	13.49298	2.32016	9.74257	1.71514
2413.000	13.49485	2.34525	9.69071	1.70561
2414.000	13.50794	2.33160	9.67726	1.68608
2415.000	13.44250	2.21826	9.66574	1.76452
2416.000	13.49111	2.26996	9.69455	1.72910
2417.000	13.47616	2.30874	9.68111	1.67039
2418.000	13.50981	2.24661	9.66189	1.70184
2419.000	13.45559	2.24325	9.70224	1.75845
2420.000	13.49298	2.24290	9.70800	1.60168
2421.000	13.40135	2.25535	9.70800	1.64478
2422.000	13.51728	2.34117	9.75409	1.65239
2423.000	13.54905	2.21727	9.76177	1.64256
2424.000	13.52289	2.22331	9.74065	1.69948
2425.000	13.50233	2.22736	9.75793	1.59360
2426.000	13.45559	2.25484	9.73297	1.64662
2427.000	13.40883	2.28233	9.72336	1.62707
2428.000	13.44063	2.25885	9.70032	1.64286
2429.000	13.47242	2.21605	9.72721	1.58983
2430.000	13.47616	2.26817	9.75985	1.60339
2431.000	13.50607	2.25823	9.64460	1.62354
2432.000	13.47990	2.21598	9.78097	1.60329
2433.000	13.42380	2.31117	9.75601	1.62300
2434.000	13.41818	2.28997	9.74449	1.54077
2435.000	13.49298	2.23904	9.81361	1.60705
2436.000	13.47616	2.22568	9.80209	1.62865
2437.000	13.51167	2.22148	9.76177	1.51522
2438.000	13.49298	2.26222	9.75217	1.52506
2439.000	13.43689	2.24729	9.77329	1.57590
2440.000	13.47242	2.21219	9.79057	1.57581
2441.000	13.49298	2.22359	9.75217	1.63281
2442.000	13.50794	2.27173	9.72913	1.56827
2443.000	13.48737	2.31828	9.76561	1.55242
2444.000	13.46494	2.28760	9.71952	1.56243
2445.000	13.47429	2.25081	9.78289	1.64246
2446.000	13.47242	2.26048	9.73681	1.65052
2447.000	13.50981	2.26399	9.74641	1.59170
2448.000	13.48550	2.26229	9.72721	1.66232
2449.000	13.44998	2.31865	9.77521	1.58568
2450.000	13.48177	2.27971	9.71376	1.57618
2451.000	13.43315	2.32847	9.79825	1.66001
2452.000	13.49298	2.30278	9.68687	1.71151
2453.000	13.44624	2.33027	9.74065	1.69556
2454.000	13.47803	2.36859	9.72144	1.62512
2455.000	13.47055	2.33390	9.68111	1.70762
2456.000	13.40883	2.38666	9.74257	1.68380
2457.000	13.46681	2.28758	9.69263	1.69776
2458.000	13.45559	2.37075	9.71952	1.76619
2459.000	13.50981	2.31614	9.72721	1.72501
2460.000	13.50981	2.38759	9.72721	1.68583
2461.000	13.43876	2.38830	9.67342	1.67239
2462.000	13.52849	2.41829	9.77329	1.71106
2463.000	13.42005	2.34212	9.66382	1.65088
2464.000	13.39012	2.24193	9.71184	1.66044
2465.000	13.42380	2.34788	9.72913	1.69170
2466.000	13.47055	2.41502	9.73873	1.66226
2467.000	13.46681	2.34553	9.74449	1.67007
2468.000	13.47616	2.31260	9.72144	1.65255
2469.000	13.46868	2.35323	9.73681	1.73672
2470.000	13.47242	2.34547	9.69839	1.71733
2471.000	13.43876	2.33421	9.73297	1.67013
2472.000	13.41818	2.34986	9.73489	1.75044
2473.000	13.51541	2.30836	9.71760	1.76816
2474.000	13.50981	2.32965	9.70800	1.77801
2475.000	13.50046	2.31816	9.68687	1.68408
2476.000	13.37702	2.33481	9.71568	1.72507
2477.000	13.46307	2.34749	9.64460	1.73915
2478.000	13.47429	2.34352	9.67726	1.70568
2479.000	13.47055	2.31458	9.70608	1.77214
2480.000	13.42380	2.32470	9.72721	1.69759
2481.000	13.49111	2.29314	9.74833	1.71903
2482.000	13.47055	2.35128	9.65997	1.76651
2483.000	13.52476	2.33916	9.75601	1.69352
2484.000	13.50794	2.37409	9.65997	1.71164
2485.000	13.49298	2.38776	9.64844	1.76853
2486.000	13.49485	2.36456	9.70608	1.76822
2487.000	13.48924	2.37814	9.67918	1.74289
2488.000	13.47803	2.39756	9.65037	1.80770
2489.000	13.50233	2.37801	9.69647	1.75848
2490.000	13.52289	2.41835	9.70608	1.68986
2491.000	13.46120	2.40352	9.70608	1.63304
2492.000	13.47242	2.33774	9.64076	1.69018
2493.000	13.54344	2.37567	9.74257	1.64657
2494.000	13.48550	2.42259	9.68879	1.64684
2495.000	13.52663	2.34880	9.77137	1.70128
2496.000	13.52849	2.44919	9.68687	1.61158
2497.000	13.48924	2.39166	9.73105	1.62312
2498.000	13.56213	2.30790	9.74641	1.62892
2499.000	13.52849	2.34492	9.74257	1.67596
2500.000	13.54718	2.35246	9.69839	1.62328
2501.000	13.57147	2.23637	9.70992	1.58207
2502.000	13.54718	2.29067	9.66382	1.70575
2503.000	13.54718	2.34474	9.70032	1.59779
2504.000	13.54531	2.32738	9.67342	1.70962
2505.000	13.48737	2.30283	9.68879	1.63116
2506.000	13.59389	2.36937	9.71184	1.66436
2507.000	13.54718	2.35632	9.72144	1.60749
2508.000	13.52663	2.34108	9.70032	1.59584
2509.000	13.54905	2.29065	9.70800	1.63499
2510.000	13.56400	2.27120	9.67534	1.69589
2511.000	13.48737	2.28738	9.68879	1.69190
2512.000	13.58268	2.26523	9.73489	1.65053
2513.000	13.54718	2.34087	9.62923	1.68828
2514.000	13.55652	2.31568	9.70416	1.61933
2515.000	13.52849	2.32754	9.71376	1.67806
2516.000	13.61443	2.33442	9.68495	1.57435
2517.000	13.50981	2.36635	9.71760	1.61731
2518.000	13.51167	2.38371	9.69455	1.63113
2519.000	13.53036	2.34104	9.66382	1.65872
2520.000	13.58641	2.31732	9.70224	1.63893
2521.000	13.56026	2.33495	9.66574	1.67634
2522.000	13.54344	2.39111	9.73297	1.68580
2523.000	13.53410	2.35645	9.70608	1.64087
2524.000	13.51728	2.32379	9.68111	1.60768
2525.000	13.50420	2.27563	9.69263	1.64878
2526.000	13.48550	2.30092	9.70608	1.69182
2527.000	13.53223	2.39122	9.61770	1.72166
2528.000	13.57334	2.33869	9.62154	1.79022
2529.000	13.57521	2.35025	9.63884	1.76466
2530.000	13.50420	2.31812	9.66766	1.76843
2531.000	13.55466	2.30991	9.64460	1.68625
2532.000	13.53597	2.32940	9.64268	1.78031
2533.000	13.62003	2.20502	9.65997	1.73320
2534.000	13.50981	2.33738	9.64652	1.77442
2535.000	13.59202	2.34622	9.68495	1.76442
2536.000	13.62190	2.33628	9.65613	1.78416
2537.000	13.52663	2.29473	9.65421	1.76066
2538.000	13.53410	2.30624	9.66382	1.75473
2539.000	13.56960	2.30011	9.66189	1.69988
2540.000	13.52663	2.40287	9.62538	1.76277
2541.000	13.59015	2.35976	9.67534	1.79386
2542.000	13.56026	2.33495	9.66958	1.73119
2543.000	13.61630	2.35370	9.61385	1.77263
2544.000	13.51167	2.30839	9.66766	1.73512
2545.000	13.51541	2.28132	9.63884	1.69215
2546.000	13.49859	2.36839	9.67534	1.74291
2547.000	13.49111	2.25837	9.69071	1.76243
2548.000	13.57521	2.26916	9.59656	1.71000
2549.000	13.49672	2.33558	9.65997	1.65678
2550.000	13.52102	2.35851	9.59271	1.76098
2551.000	13.54158	2.26948	9.66189	1.70575
2552.000	13.46868	2.26245	9.72144	1.61925
2553.000	13.57147	2.22672	9.65613	1.77436
2554.000	13.50794	2.30843	9.68879	1.61940
2555.000	13.51167	2.28908	9.68495	1.69388
2556.000	13.56213	2.27894	9.66766	1.66066
2557.000	13.51354	2.29872	9.66958	1.69004
2558.000	13.52476	2.31020	9.66574	1.66851
2559.000	13.54531	2.27331	9.65037	1.68622
2560.000	13.50981	2.27944	9.69071	1.64487
2561.000	13.54344	2.25208	9.69839	1.66638
2562.000	13.51167	2.29294	9.68495	1.76050
2563.000	13.56960	2.28852	9.67342	1.73901
2564.000	13.50981	2.26399	9.68303	1.68605
2565.000	13.54158	2.25790	9.68303	1.72524
2566.000	13.52102	2.26968	9.64652	1.73914
2567.000	13.58455	2.29996	9.62923	1.74903
2568.000	13.55839	2.27511	9.66766	1.69985
2569.000	13.56400	2.27120	9.69455	1.76633
2570.000	13.52476	2.27157	9.64652	1.72543
2571.000	13.50607	2.29107	9.63691	1.80778
2572.000	13.50233	2.25827	9.65997	1.75083
2573.000	13.53036	2.27731	9.72336	1.70348
2574.000	13.53971	2.30619	9.69071	1.80749
2575.000	13.48924	2.37427	9.70800	1.72511
2576.000	13.57334	2.34255	9.68879	1.69974
2577.000	13.56587	2.34262	9.68495	1.75658
2578.000	13.53410	2.37769	9.65805	1.79003
2579.000	13.58455	2.36174	9.70032	1.76629
2580.000	13.52849	2.29471	9.64460	1.75091
2581.000	13.54158	2.29072	9.71568	1.69764
2582.000	13.56400	2.32912	9.76561	1.79141
2583.000	13.46868	2.29142	9.68495	1.74874
2584.000	13.45372	2.26645	9.71184	1.77211
2585.000	13.54158	2.34093	9.70416	1.74668
2586.000	13.55279	2.32151	9.70992	1.74274
2587.000	13.55652	2.29251	9.75601	1.74641
2588.000	13.51915	2.26970	9.70416	1.74472
2589.000	13.54905	2.28293	9.70800	1.74470
2590.000	13.57147	2.31940	9.70608	1.74667
2591.000	13.50794	2.33740	9.70992	1.76233
2592.000	13.56213	2.34266	9.65997	1.76455
2593.000	13.57521	2.28847	9.68879	1.70366
2594.000	13.63310	2.35547	9.75409	1.72879
2595.000	13.62003	2.35560	9.70032	1.76434
2596.000	13.50046	2.34906	9.72336	1.74854
2597.000	13.51167	2.35088	9.68303	1.79381
2598.000	13.54344	2.32933	9.67726	1.75858
2599.000	13.56400	2.34071	9.69071	1.78594
2600.000	13.51541	2.25814	9.74065	1.74062
2601.000	13.52289	2.29090	9.69263	1.70560
2602.000	13.56213	2.32528	9.78289	1.69339
2603.000	13.56213	2.28666	9.68879	1.72717
2604.000	13.56026	2.27510	9.65805	1.75280
2605.000	13.54531	2.30807	9.72529	1.70739
2606.000	13.52849	2.25995	9.70032	1.63698
2607.000	13.34334	2.38344	9.66574	1.67438
2608.000	13.26096	2.48283	9.51196	1.65946
2609.000	13.20663	2.57424	9.34266	1.77991
2610.000	12.97030	2.53607	9.27142	1.89404
2611.000	12.89330	2.57556	9.09610	1.90086
2612.000	12.62626	2.64609	8.91867	1.97050
2613.000	12.43976	2.80306	8.70244	2.11699
2614.000	12.35301	3.01722	8.61356	2.27658
2615.000	12.14155	3.07781	8.53817	2.34185
2616.000	12.08863	3.14825	8.40472	2.37607
2617.000	11.85213	3.28104	8.23826	2.47338
2618.000	11.72520	3.26896	8.13560	2.46812
2619.000	11.63799	3.33408	7.98637	2.64795
2620.000	11.60954	3.41986	8.00963	2.56916
2621.000	11.50707	3.39586	7.93401	2.51064
2622.000	11.49378	3.23863	7.82344	2.59786
2623.000	11.35132	3.25387	7.67980	2.60465
2624.000	11.29619	3.22338	7.61377	2.56569
2625.000	11.23154	3.35247	7.52441	2.53670
2626.000	11.16686	3.35321	7.48749	2.44241
2627.000	11.09263	3.33656	7.40390	2.62403
2628.000	10.99550	3.21892	7.37085	2.57697
2629.000	10.88115	3.17342	7.27361	2.62283
2630.000	10.85255	3.27695	7.11403	2.64739
2631.000	10.69992	3.27276	7.09067	2.65540
2632.000	10.61591	3.40033	6.93097	2.59522
2633.000	10.55669	3.37175	6.88226	2.58760
2634.000	10.46304	3.44880	6.78676	2.63148
2635.000	10.32724	3.38984	6.74582	2.51341
2636.000	10.33107	3.40345	6.69707	2.58071
2637.000	10.28131	3.49565	6.66197	2.53553
2638.000	10.26408	3.51925	6.64246	2.54155
2639.000	10.37125	3.45956	6.63076	2.64416
2640.000	10.32150	3.51471	6.68147	2.57487
2641.000	10.33490	3.50871	6.66197	2.63808
2642.000	10.32916	3.53607	6.67172	2.60450
2643.000	10.30236	3.48957	6.61516	2.63438
2644.000	10.42289	3.53501	6.68147	2.64389
2645.000	10.45730	3.51903	6.69122	2.57285
2646.000	10.45157	3.46842	6.71657	2.58849
2647.000	10.48789	3.45437	6.67562	2.56307
2648.000	10.38655	3.48084	6.67562	2.61040
2649.000	10.44201	3.50751	6.67562	2.59659
2650.000	10.48598	3.41931	6.63466	2.60273
2651.000	10.39037	3.49249	6.61516	2.55352
2652.000	10.45922	3.53655	6.63661	2.58300
2653.000	10.41332	3.54097	6.51174	2.61520
2654.000	10.37890	3.51992	6.57223	2.61292
2655.000	10.40759	3.54688	6.58589	2.61087
2656.000	10.34255	3.56127	6.60735	2.62259
2657.000	10.34255	3.52032	6.56638	2.61492
2658.000	10.38272	3.53937	6.60735	2.60484
2659.000	10.42289	3.53307	6.58394	2.50437
2660.000	10.35977	3.52988	6.56443	2.62479
2661.000	10.33298	3.53603	6.62686	2.71516
2662.000	10.36933	3.49858	6.58784	2.62072
2663.000	10.42289	3.58179	6.56248	2.67213
2664.000	10.33490	3.57500	6.55858	2.69976
2665.000	10.29854	3.52666	6.53516	2.66439
2666.000	10.31767	3.54985	6.49418	2.63502
2667.000	10.37890	3.49847	6.58199	2.73513
2668.000	10.41332	3.44545	6.55077	2.62881
2669.000	10.37890	3.48092	6.53516	2.62494
2670.000	10.39994	3.41635	6.55663	2.61300
2671.000	10.37316	3.47709	6.49223	2.67053
2672.000	10.43627	3.38671	6.58784	2.70946
2673.000	10.36933	3.50833	6.58589	2.68187
2674.000	10.40567	3.50987	6.58979	2.65424
2675.000	10.35020	3.39349	6.56248	2.69383
2676.000	10.34638	3.43253	6.59565	2.62857
2677.000	10.30236	3.39206	6.55467	2.68795
2678.000	10.37316	3.42834	6.55272	2.62485
2679.000	10.39420	3.39886	6.57028	2.64645
2680.000	10.36551	3.43623	6.52150	2.61121
2681.000	10.36742	3.44985	6.57419	2.63263
2682.000	10.42097	3.41807	6.54882	2.63473
2683.000	10.34446	3.50275	6.61125	2.59496
2684.000	10.45922	3.44299	6.62491	2.64025
2685.000	10.34064	3.46185	6.58004	2.65232
2686.000	10.43245	3.47838	6.56833	2.66421
2687.000	10.42097	3.37128	6.55858	2.66821
2688.000	10.34446	3.34869	6.64441	2.62042
2689.000	10.47260	3.39606	6.59370	2.64830
2690.000	10.35403	3.44025	6.63466	2.60273
2691.000	10.40567	3.46893	6.62101	2.58308
2692.000	10.35020	3.36229	6.63856	2.58890
2693.000	10.32724	3.42299	6.58589	2.71539
2694.000	10.37698	3.49264	6.56248	2.64452
2695.000	10.39037	3.39891	6.60345	2.61670
2696.000	10.43436	3.42962	6.58394	2.62666
2697.000	10.39611	3.35204	6.57419	2.65629
2698.000	10.40950	3.45719	6.62296	2.51601
2699.000	10.43818	3.40034	6.60540	2.58907
2700.000	10.38081	3.37561	6.57223	2.62475
2701.000	10.44010	3.43736	6.57809	2.65430
2702.000	10.37698	3.37955	6.55467	2.64654
2703.000	10.39994	3.41440	6.58589	2.63651
2704.000	10.43627	3.40036	6.55467	2.64851
2705.000	10.37507	3.37957	6.56833	2.64252
2706.000	10.45922	3.41765	6.58784	2.62269
2707.000	10.38272	3.49843	6.61125	2.63440
2708.000	10.40376	3.42411	6.60345	2.61078
2709.000	10.37890	3.39903	6.62686	2.59882
2710.000	10.35211	3.43637	6.61516	2.59297
2711.000	10.49171	3.43679	6.60930	2.61864
2712.000	10.39037	3.47105	6.55467	2.62681
2713.000	10.44583	3.38661	6.57028	2.59123
2714.000	10.34255	3.45403	6.54492	2.62489
2715.000	10.33872	3.42287	6.62491	2.57320
2716.000	10.44010	3.46465	6.51760	2.56389
2717.000	10.35594	3.45973	6.58199	2.65822
2718.000	10.40185	3.43778	6.50003	2.58962
2719.000	10.36742	3.39330	6.62686	2.57516
2720.000	10.36742	3.44205	6.52540	2.59541
2721.000	10.38272	3.39899	6.57809	2.64838
2722.000	10.43818	3.48611	6.60345	2.57725
2723.000	10.44583	3.50357	6.59760	2.54967
2724.000	10.42480	3.44142	6.60345	2.57725
2725.000	10.46877	3.51306	6.58784	2.65030
2726.000	10.46686	3.48189	6.50784	2.69412
2727.000	10.38272	3.45554	6.52345	2.65262
2728.000	10.37316	3.49269	6.62296	2.63434
2729.000	10.39420	3.44761	6.55858	2.61299
2730.000	10.50892	3.56911	6.50589	2.63496
2731.000	10.43627	3.49588	6.54297	2.65843
2732.000	10.44201	3.57183	6.52540	2.63683
2733.000	10.43818	3.51925	6.45905	2.58983
2734.000	10.45157	3.51325	6.54882	2.64065
2735.000	10.43053	3.51154	6.53516	2.60916
2736.000	10.46113	3.51314	6.54102	2.75310
2737.000	10.44966	3.51327	6.57223	2.68391
2738.000	10.45730	3.52683	6.52540	2.66839
2739.000	10.52229	3.52804	6.51955	2.70392
2740.000	10.40567	3.54106	6.50784	2.68229
2741.000	10.50700	3.51457	6.46880	2.71997
2742.000	10.48980	3.56738	6.58589	2.58523
2743.000	10.48980	3.54205	6.50394	2.59355
2744.000	10.50318	3.49318	6.53516	2.60916
2745.000	10.46304	3.49558	6.54492	2.55980
2746.000	10.49362	3.56734	6.55467	2.63865
2747.000	10.39802	3.49046	6.54492	2.62292
2748.000	10.40567	3.55470	6.55077	2.62289
2749.000	10.43627	3.55240	6.54297	2.60912
2750.000	10.45922	3.53460	6.52540	2.62894
2751.000	10.43245	3.49592	6.53906	2.57167
2752.000	10.43245	3.44524	6.62491	2.61658
2753.000	10.43818	3.49196	6.55663	2.57947
2754.000	10.47069	3.43312	6.55858	2.60510
2755.000	10.44201	3.48997	6.52345	2.57964
2756.000	10.36168	3.51621	6.53516	2.63481
2757.000	10.49745	3.47375	6.53906	2.59731
2758.000	10.39802	3.43977	6.59174	2.63253
2759.000	10.43436	3.49200	6.59174	2.69958
2760.000	10.46686	3.49359	6.50394	2.66061
2761.000	10.48598	3.42515	6.56443	2.67607
2762.000	10.39994	3.46509	6.55272	2.66232
2763.000	10.44774	3.44312	6.59174	2.71141
2764.000	10.49362	3.51862	6.54492	2.64462
2765.000	10.42480	3.46677	6.54687	2.59727
2766.000	10.45922	3.44494	6.53126	2.66638
2767.000	10.45922	3.37476	6.57809	2.71938
2768.000	10.44010	3.40811	6.46880	2.65882
2769.000	10.45922	3.43520	6.51955	2.65461
2770.000	10.51465	3.36636	6.59370	2.67591
2771.000	10.41332	3.43570	6.53321	2.69004
2772.000	10.35977	3.48309	6.60150	2.62657
2773.000	10.44010	3.43931	6.52736	2.72557
2774.000	10.45157	3.46452	6.49027	2.69027
2775.000	10.42480	3.40048	6.57809	2.62472
2776.000	10.48980	3.46604	6.56638	2.67408
2777.000	10.44201	3.38860	6.51955	2.71378
2778.000	10.40376	3.38511	6.53516	2.67031
2779.000	10.44774	3.41388	6.55077	2.63275
2780.000	10.48216	3.41935	6.57419	2.67010
2781.000	10.45157	3.44308	6.52345	2.66248
2782.000	10.44010	3.34767	6.50784	2.68820
2783.000	10.38655	3.40285	6.59565	2.65618
2784.000	10.45348	3.43526	6.48247	2.73173
2785.000	10.45730	3.41377	6.58394	2.76470
2786.000	10.38081	3.36781	6.56443	2.64451
2787.000	10.48407	3.48950	6.58004	2.66809
2788.000	10.49362	3.40558	6.55858	2.67215
2789.000	10.48789	3.34716	6.53321	2.62890
2790.000	10.41524	3.40254	6.56248	2.66227
2791.000	10.39229	3.33063	6.62686	2.65404
2792.000	10.42671	3.36342	6.52150	2.66446
2793.000	10.47451	3.42918	6.54687	2.67616
2794.000	10.42097	3.38298	6.62296	2.65209
2795.000	10.48980	3.46994	6.57028	2.69378
2796.000	10.46686	3.41367	6.62491	2.62447
2797.000	10.51847	3.37607	6.55663	2.69977
2798.000	10.45922	3.40206	6.58394	2.61680
2799.000	10.50509	3.40740	6.57028	2.68984
2800.000	10.44583	3.50162	6.52345	2.67431
2801.000	10.45922	3.45664	6.55663	2.72738
2802.000	10.43818	3.50560	6.60930	2.68371
2803.000	10.47260	3.38631	6.53126	2.65652
2804.000	10.50509	3.46003	6.51369	2.70198
2805.000	10.39229	3.47103	6.55077	2.66431
2806.000	10.39037	3.47495	6.50589	2.70399
2807.000	10.41524	3.42788	6.61906	2.63436
2808.000	10.42480	3.46092	6.56248	2.71749
2809.000	10.47451	3.50520	6.51369	2.75128
2810.000	10.47833	3.44083	6.53126	2.70188
2811.000	10.42671	3.54277	6.54492	2.63475
2812.000	10.42862	3.51351	6.56443	2.70762
2813.000	10.41715	3.49414	6.53711	2.68213
2814.000	10.44583	3.49577	6.55272	2.72346
2815.000	10.46304	3.44685	6.56443	2.68395
2816.000	10.42289	3.50773	6.56443	2.66029
2817.000	10.41906	3.42004	6.60735	2.66992
2818.000	10.45922	3.49367	6.60930	2.68963
2819.000	10.42097	3.51165	6.53711	2.72749
2820.000	10.39229	3.49832	6.56443	2.74311
2821.000	10.36933	3.50443	6.58394	2.72132
2822.000	10.36742	3.47130	6.60540	2.71528
2823.000	10.42862	3.52520	6.59565	2.65618
2824.000	10.33872	3.48917	6.58784	2.57733
2825.000	10.45539	3.56193	6.55077	2.69192
2826.000	10.42480	3.52915	6.57809	2.64641
2827.000	10.43053	3.55052	6.58784	2.64242
2828.000	10.40950	3.58195	6.58004	2.66809
2829.000	10.44583	3.55230	6.55272	2.66430
2830.000	10.44392	3.53673	6.61516	2.69157
2831.000	10.36168	3.50256	6.60930	2.62061
2832.000	10.43818	3.53874	6.64441	2.62239
2833.000	10.46686	3.47215	6.60930	2.62850
2834.000	10.48980	3.50892	6.59955	2.68574
2835.000	10.49362	3.54006	6.55858	2.69582
2836.000	10.41141	3.48641	6.57028	2.72139
2837.000	10.38655	3.55882	6.51760	2.85774
2838.000	10.33681	3.53599	6.36729	2.77180
2839.000	10.17984	3.43239	6.19735	2.82598
2840.000	9.94984	3.41335	6.13872	2.69012
2841.000	9.81553	3.41865	6.01361	2.66903
2842.000	9.66574	3.44754	5.76517	2.54183
2843.000	9.44657	3.30503	5.57332	2.38258
2844.000	9.09417	3.23786	5.41661	2.28237
2845.000	8.86271	3.01846	5.14413	2.12509
2846.000	8.70630	3.05895	5.07745	2.02042
2847.000	8.33118	2.70460	4.78309	2.05498
2848.000	8.10072	2.61183	4.59653	1.93075
2849.000	7.88552	2.57191	4.42559	1.71324
2850.000	7.70116	2.43333	4.21526	1.54719
2851.000	7.37668	2.25000	4.04808	1.40473
2852.000	7.23470	2.17780	3.84739	1.35944
2853.000	6.89006	1.89340	3.57176	1.46305
2854.000	6.72047	1.99275	3.32750	1.43365
2855.000	6.35362	1.99618	3.20533	1.27302
2856.000	6.06444	1.77595	2.90962	1.36869
2857.000	5.82975	1.96057	2.72029	1.28749
2858.000	5.64968	1.82869	2.49340	1.22812
2859.000	5.36566	1.87705	2.23288	1.30584
2860.000	5.15786	1.89945	2.03743	1.15696
2861.000	5.03822	1.81864	1.75305	1.06373
2862.000	4.76149	1.51631	1.57725	1.13937
2863.000	4.70259	1.58579	1.38561	1.05994
2864.000	4.36663	1.56670	1.28286	1.21506
2865.000	4.14053	1.34110	1.03979	1.04814
2866.000	3.95758	1.38505	0.85796	1.00644
2867.000	3.74306	1.35960	0.66622	0.90506
2868.000	3.46935	1.18535	0.35783	0.72410
2869.000	3.29795	1.19151	0.17793	0.73207
2870.000	3.05749	1.12626	-0.05931	0.60874
2871.000	2.71634	1.14050	-0.30248	0.63261
2872.000	2.50919	1.05923	-0.55552	0.40781
2873.000	2.30000	1.06734	-0.72750	0.49532
2874.000	2.16576	1.05949	-0.97259	0.48932
2875.000	1.89525	0.93444	-1.24136	0.38983
2876.000	1.65627	0.85106	-1.34016	0.36993
2877.000	1.56737	0.85706	-1.50415	0.33013
2878.000	1.40142	0.88894	-1.59898	0.42159
2879.000	1.21765	0.88702	-1.78663	0.45734
2880.000	1.05560	0.70212	-1.94660	0.38175
2881.000	0.89156	0.73795	-2.07889	0.41949
2882.000	0.78680	0.72206	-2.11641	0.38767
2883.000	0.68203	0.72804	-2.23486	0.35583
2884.000	0.64448	0.65247	-2.32368	0.43731
2885.000	0.69785	0.69224	-2.33355	0.38761
2886.000	0.65041	0.69423	-2.32565	0.49097
2887.000	0.73343	0.69422	-2.37500	0.45717
2888.000	0.75319	0.74792	-2.26249	0.46913
2889.000	0.79470	0.66438	-2.39868	0.51281
2890.000	0.74529	0.67035	-2.30000	0.55061
2891.000	0.80063	0.67631	-2.25854	0.51485
2892.000	0.75319	0.67632	-2.29210	0.50689
2893.000	0.81447	0.77973	-2.28026	0.41347
2894.000	0.83424	0.76581	-2.31381	0.40153
2895.000	0.91330	0.82148	-2.31776	0.41346
2896.000	0.85005	0.78370	-2.33158	0.30214
2897.000	0.81842	0.77376	-2.32565	0.40153
2898.000	0.84412	0.76183	-2.32565	0.23058
2899.000	0.78877	0.70217	-2.38092	0.27232
2900.000	0.76901	0.77576	-2.41841	0.24448
2901.000	0.69587	0.69821	-2.45788	0.21864
2902.000	0.74726	0.76184	-2.47762	0.25043
2903.000	0.66424	0.67633	-2.44604	0.25044
2904.000	0.68006	0.66638	-2.44210	0.26237
2905.000	0.69785	0.73401	-2.47564	0.26037
2906.000	0.66820	0.65644	-2.46380	0.25242
2907.000	0.69192	0.63854	-2.49538	0.21267
2908.000	0.65634	0.67037	-2.47762	0.26435
2909.000	0.77494	0.69024	-2.47367	0.30608
2910.000	0.70773	0.71611	-2.44999	0.23056
2911.000	0.68599	0.70417	-2.50327	0.19478
2912.000	0.72157	0.71213	-2.45394	0.20472
2913.000	0.76505	0.73797	-2.44210	0.26038
2914.000	0.70378	0.70616	-2.47762	0.20472
2915.000	0.69785	0.70218	-2.49538	0.20670
2916.000	0.75319	0.68030	-2.50524	0.21068
2917.000	0.78482	0.76979	-2.55852	0.22061
2918.000	0.80063	0.75786	-2.51905	0.20273
2919.000	0.78680	0.76383	-2.54668	0.23055
2920.000	0.76110	0.79168	-2.50130	0.25043
2921.000	0.86191	0.78967	-2.49340	0.31602
2922.000	0.76703	0.82747	-2.54668	0.19278
2923.000	0.83819	0.73398	-2.47959	0.21068
2924.000	0.86784	0.74392	-2.51313	0.19676
2925.000	0.81447	0.78769	-2.49340	0.20670
2926.000	0.77494	0.76383	-2.56444	0.20272
2927.000	0.83028	0.79365	-2.51313	0.18086
2928.000	0.87970	0.82347	-2.52695	0.22856
2929.000	0.82831	0.78967	-2.53089	0.24645
2930.000	0.86981	0.83740	-2.52695	0.19875
2931.000	0.78482	0.84338	-2.52497	0.21465
2932.000	0.85400	0.83939	-2.51511	0.25639
2933.000	0.79470	0.81554	-2.45394	0.23652
2934.000	0.82633	0.83144	-2.51905	0.19080
2935.000	0.85598	0.80757	-2.49932	0.22857
2936.000	0.86784	0.77773	-2.49735	0.22260
2937.000	0.92713	0.79164	-2.48946	0.34782
2938.000	0.85005	0.78569	-2.51905	0.20273
2939.000	0.81052	0.87122	-2.50130	0.23850
2940.000	0.82831	0.77376	-2.52300	0.24049
2941.000	0.85796	0.78967	-2.48946	0.21863
2942.000	0.86586	0.87320	-2.50722	0.20670
2943.000	0.78482	0.78372	-2.50524	0.22658
2944.000	0.82435	0.82547	-2.49538	0.26633
2945.000	0.83621	0.74592	-2.47762	0.23453
2946.000	0.85796	0.80956	-2.46183	0.24845
2947.000	0.85796	0.86922	-2.52300	0.22061
2948.000	0.88365	0.82546	-2.50524	0.24844
2949.000	0.81052	0.78172	-2.47170	0.25441
2950.000	0.85598	0.79166	-2.48946	0.23652
2951.000	0.91923	0.84733	-2.53879	0.24843
2952.000	0.93504	0.83738	-2.51511	0.23055
2953.000	0.87970	0.81751	-2.52103	0.24049
2954.000	0.89353	0.78966	-2.48946	0.23851
2955.000	0.85203	0.76580	-2.51708	0.26434
2956.000	0.93899	0.85727	-2.49340	0.23453
2957.000	0.86586	0.87518	-2.42631	0.26436
2958.000	0.85400	0.86127	-2.55062	0.21862
2959.000	0.90539	0.89307	-2.52892	0.23254
2960.000	0.92713	0.85329	-2.45394	0.32398
2961.000	0.91527	0.87119	-2.48156	0.26832
2962.000	0.94295	0.74788	-2.44802	0.30808
2963.000	0.90342	0.77773	-2.46775	0.29416
2964.000	0.92713	0.86523	-2.45986	0.27627
2965.000	0.88563	0.83342	-2.50327	0.29415
2966.000	0.86191	0.81552	-2.47564	0.30410
2967.000	0.86388	0.81552	-2.50130	0.24248
2968.000	0.85993	0.89308	-2.50130	0.31005
2969.000	0.90737	0.83341	-2.47762	0.28025
2970.000	0.93109	0.86721	-2.50130	0.24844
2971.000	0.89749	0.77574	-2.48551	0.30608
2972.000	0.89946	0.85927	-2.49538	0.26235
2973.000	0.86191	0.85729	-2.48551	0.24447
2974.000	0.87179	0.81751	-2.43618	0.28224
2975.000	0.90342	0.80756	-2.43815	0.26435
2976.000	0.91132	0.87517	-2.43618	0.28423
2977.000	0.89551	0.84336	-2.46775	0.28422
2978.000	0.93109	0.87517	-2.44802	0.29019
2979.000	0.87970	0.84137	-2.44999	0.36572
2980.000	0.98050	0.85328	-2.43618	0.33392
2981.000	0.85598	0.82348	-2.51511	0.23254
2982.000	0.91527	0.79562	-2.45591	0.31205
2983.000	0.91923	0.78568	-2.50327	0.28819
2984.000	0.87377	0.80160	-2.52695	0.24247
2985.000	0.87970	0.76182	-2.45788	0.33988
2986.000	0.87772	0.86126	-2.46972	0.27627
2987.000	0.89551	0.91694	-2.44210	0.32398
2988.000	0.87377	0.83740	-2.45788	0.35379
2989.000	0.85598	0.86127	-2.46972	0.33590
2990.000	0.83819	0.82945	-2.54471	0.26036
2991.000	0.87574	0.84137	-2.47170	0.28025
2992.000	0.88167	0.76977	-2.40065	0.32399
2993.000	0.91132	0.89307	-2.47762	0.28025
2994.000	0.90342	0.87319	-2.46380	0.29814
2995.000	0.86981	0.85728	-2.44407	0.28224
2996.000	0.92911	0.86523	-2.45196	0.31205
2997.000	0.89551	0.83739	-2.46380	0.32596
2998.000	0.95876	0.86124	-2.44802	0.31205
2999.000	0.93109	0.86920	-2.43815	0.30411
3000.000	0.88365	0.84535	-2.40263	0.32399
3001.000	0.95085	0.85329	-2.44210	0.30609
3002.000	0.95876	0.87715	-2.48946	0.36968
3003.000	0.91725	0.93881	-2.51708	0.32992
3004.000	0.86191	0.90104	-2.39868	0.31803
3005.000	0.93306	0.79761	-2.48354	0.34782
3006.000	0.87377	0.78768	-2.46380	0.29416
3007.000	0.86191	0.78171	-2.48354	0.32198
3008.000	0.82633	0.83939	-2.43618	0.37765
3009.000	0.82633	0.84735	-2.44604	0.32795
3010.000	0.82633	0.76382	-2.42039	0.34784
3011.000	0.85400	0.87320	-2.46972	0.36969
3012.000	0.89946	0.82745	-2.50327	0.43924
3013.000	0.87179	0.85728	-2.50130	0.30210
3014.000	0.88563	0.77574	-2.46775	0.37962
3015.000	0.89156	0.87916	-2.44012	0.35777
3016.000	0.91725	0.74590	-2.47959	0.39751
3017.000	0.95283	0.78567	-2.44210	0.36771
3018.000	0.89749	0.83142	-2.45986	0.39751
3019.000	0.88760	0.81750	-2.51708	0.32396
3020.000	0.89749	0.82745	-2.46972	0.38956
3021.000	0.89353	0.82546	-2.47762	0.37763
3022.000	0.82633	0.85133	-2.56838	0.37363
3023.000	0.92318	0.87318	-2.49538	0.42135
3024.000	0.87574	0.83342	-2.47959	0.33192
3025.000	0.89946	0.82943	-2.48551	0.37962
3026.000	0.86388	0.84734	-2.52695	0.35178
3027.000	0.90737	0.91694	-2.51511	0.30409
3028.000	0.83424	0.83343	-2.59206	0.33587
3029.000	0.90539	0.87915	-2.54076	0.27427
3030.000	0.90539	0.79364	-2.52695	0.37563
3031.000	0.91527	0.84932	-2.52497	0.33390
3032.000	0.92120	0.88511	-2.58614	0.38754
3033.000	0.95876	0.85925	-2.58417	0.34382
3034.000	0.95480	0.92488	-2.49735	0.38955
3035.000	0.92911	0.86125	-2.51708	0.34185
3036.000	0.90144	0.92290	-2.50919	0.36173
3037.000	0.86784	0.94479	-2.56049	0.22458
3038.000	0.90342	0.90103	-2.55062	0.24843
3039.000	0.89156	0.94478	-2.50524	0.19279
3040.000	0.83226	0.76581	-2.54865	0.23651
3041.000	0.90934	0.87915	-2.54471	0.27029
3042.000	0.91527	0.86722	-2.59798	0.25438
3043.000	0.88167	0.84535	-2.53681	0.22458
3044.000	0.88563	0.92092	-2.60192	0.25836
3045.000	0.83226	0.77575	-2.52695	0.19279
3046.000	0.81842	0.82547	-2.58811	0.23849
3047.000	0.88167	0.88512	-2.53287	0.23254
3048.000	0.95085	0.85925	-2.59798	0.30208
3049.000	0.83819	0.78172	-2.60587	0.27426
3050.000	0.82633	0.79564	-2.54668	0.24048
3051.000	0.86191	0.78569	-2.54865	0.24843
3052.000	0.80063	0.83940	-2.57825	0.20868
3053.000	0.88563	0.84535	-2.55852	0.27228
3054.000	0.78877	0.83145	-2.52695	0.21664
3055.000	0.84017	0.86326	-2.50130	0.21068
3056.000	0.85598	0.89110	-2.52695	0.29614
3057.000	0.84017	0.85530	-2.56838	0.28420
3058.000	0.81447	0.81752	-2.48551	0.30409
3059.000	0.86784	0.80558	-2.54273	0.29216
3060.000	0.86784	0.81552	-2.48551	0.37366
3061.000	0.74924	0.73599	-2.49340	0.33987
3062.000	0.83424	0.73398	-2.48354	0.32198
3063.000	0.88563	0.80955	-2.49340	0.33589
3064.000	0.84017	0.84337	-2.54273	0.31799
3065.000	0.78877	0.74791	-2.51313	0.34384
3066.000	0.79866	0.81951	-2.51511	0.32595
3067.000	0.82831	0.83939	-2.51511	0.27428
3068.000	0.82831	0.85530	-2.48156	0.35577
3069.000	0.83424	0.90105	-2.44210	0.36373
3070.000	0.87772	0.86723	-2.48156	0.34583
3071.000	0.83424	0.89508	-2.50327	0.34781
3072.000	0.81842	0.84735	-2.49340	0.26236
3073.000	0.84214	0.84536	-2.52695	0.24446
3074.000	0.84807	0.85331	-2.42631	0.30411
3075.000	0.77098	0.79764	-2.52300	0.32396
3076.000	0.82040	0.83144	-2.48551	0.27826
3077.000	0.87377	0.86524	-2.51313	0.26036
3078.000	0.86784	0.83541	-2.54076	0.35575
3079.000	0.84017	0.77774	-2.53089	0.27427
3080.000	0.83621	0.82945	-2.51313	0.21863
3081.000	0.82831	0.86724	-2.50130	0.27627
3082.000	0.83226	0.84138	-2.51708	0.34781
3083.000	0.83621	0.84735	-2.50524	0.32198
3084.000	0.84610	0.89309	-2.52892	0.29613
3085.000	0.74726	0.74394	-2.51116	0.30210
3086.000	0.78877	0.81156	-2.61376	0.31201
3087.000	0.80459	0.82548	-2.54668	0.32992
3088.000	0.85400	0.82348	-2.45986	0.28224
3089.000	0.88167	0.81751	-2.55260	0.28420
3090.000	0.88167	0.83143	-2.55852	0.29017
3091.000	0.86981	0.87916	-2.50722	0.28024
3092.000	0.84610	0.85331	-2.53089	0.25241
3093.000	0.93899	0.81550	-2.53879	0.27427
3094.000	0.89353	0.91097	-2.55062	0.35575
3095.000	0.90934	0.91296	-2.58614	0.31798
3096.000	0.95480	0.90102	-2.54668	0.33787
3097.000	0.91132	0.84733	-2.52892	0.37961
3098.000	0.96271	0.89704	-2.59206	0.32990
3099.000	0.91923	0.88313	-2.53681	0.27427
3100.000	0.90539	0.91893	-2.54471	0.27427
3101.000	0.87377	0.82944	-2.54273	0.25440
3102.000	0.90342	0.91296	-2.57627	0.28619
3103.000	0.92120	1.01040	-2.52300	0.29216
3104.000	0.92713	0.93682	-2.55654	0.28619
3105.000	0.89946	0.88512	-2.49538	0.31999
3106.000	0.88958	0.86722	-2.55852	0.24843
3107.000	0.88167	0.86325	-2.53287	0.32396
3108.000	0.86586	0.90303	-2.54865	0.27228
3109.000	0.86981	0.95075	-2.57430	0.33786
3110.000	0.90934	0.93682	-2.52695	0.38954
3111.000	0.93504	0.95471	-2.55852	0.40146
3112.000	0.91330	0.91694	-2.59798	0.33388
3113.000	0.87179	0.85530	-2.55457	0.41537
3114.000	0.88563	0.89308	-2.53089	0.42730
3115.000	0.86981	0.95871	-2.54471	0.43922
3116.000	0.88760	0.91893	-2.53879	0.48096
3117.000	0.85598	0.83541	-2.51905	0.43923
3118.000	0.83226	0.77774	-2.51708	0.42333
3119.000	0.86981	0.77375	-2.50130	0.56444
3120.000	0.84610	0.74592	-2.47959	0.50086
3121.000	0.83621	0.70415	-2.51511	0.48693
3122.000	0.86981	0.80160	-2.50919	0.45911
3123.000	0.69982	0.60472	-2.49538	0.50284
3124.000	0.80854	0.73001	-2.45591	0.48497
3125.000	0.82633	0.69620	-2.49340	0.47899
3126.000	0.79866	0.67631	-2.48354	0.42732
3127.000	0.80854	0.74194	-2.52892	0.43525
3128.000	0.74924	0.71411	-2.51708	0.49090
3129.000	0.78482	0.76979	-2.57825	0.42331
3130.000	0.73738	0.72008	-2.50524	0.41340
3131.000	0.82238	0.73796	-2.48748	0.40546
3132.000	0.73738	0.64450	-2.52300	0.37166
3133.000	0.76505	0.74593	-2.52892	0.40942
3134.000	0.79668	0.77775	-2.48946	0.38359
3135.000	0.80261	0.69023	-2.51313	0.32794
3136.000	0.82831	0.78172	-2.45591	0.38559
3137.000	0.81842	0.74393	-2.50130	0.38359
3138.000	0.79273	0.77775	-2.48946	0.31204
3139.000	0.82435	0.80360	-2.44604	0.39752
3140.000	0.82238	0.73399	-2.46380	0.37764
3141.000	0.81249	0.72404	-2.44210	0.37566
3142.000	0.79075	0.77974	-2.45788	0.37168
3143.000	0.79273	0.79565	-2.48156	0.31403
3144.000	0.84610	0.76978	-2.55654	0.32196
3145.000	0.84017	0.74393	-2.46183	0.30410
3146.000	0.79866	0.75985	-2.45788	0.30808
3147.000	0.76505	0.77974	-2.38881	0.31803
3148.000	0.80656	0.81553	-2.52300	0.26235
3149.000	0.72552	0.68428	-2.48156	0.29018
3150.000	0.80854	0.80360	-2.49538	0.31005
3151.000	0.75715	0.79168	-2.47564	0.31602
3152.000	0.74726	0.73400	-2.50919	0.28223
3153.000	0.78087	0.78173	-2.50919	0.31999
3154.000	0.79075	0.67830	-2.47762	0.32000
3155.000	0.75319	0.74792	-2.46775	0.28621
3156.000	0.80656	0.76581	-2.49735	0.23453
3157.000	0.78284	0.76780	-2.47170	0.27031
3158.000	0.75517	0.83344	-2.50524	0.28223
3159.000	0.79866	0.86128	-2.51116	0.28024
3160.000	0.80459	0.82349	-2.44802	0.32199
3161.000	0.77889	0.86327	-2.46972	0.26832
3162.000	0.76110	0.83543	-2.43420	0.27230
3163.000	0.75715	0.82350	-2.49143	0.26633
3164.000	0.79075	0.89907	-2.53089	0.31800
3165.000	0.70378	0.85334	-2.53879	0.15900
3166.000	0.79470	0.80161	-2.47170	0.26633
3167.000	0.80261	0.86923	-2.45394	0.28025
3168.000	0.80063	0.88116	-2.55062	0.23651
3169.000	0.77098	0.89112	-2.45196	0.30808
3170.000	0.81249	0.90503	-2.58022	0.22259
3171.000	0.79273	0.94878	-2.56444	0.29215
3172.000	0.77889	0.88515	-2.54076	0.31402
3173.000	0.84214	1.00644	-2.46578	0.23255
3174.000	0.78284	0.92492	-2.47959	0.28820
3175.000	0.83621	1.05019	-2.56246	0.22856
3176.000	0.74133	0.98061	-2.60587	0.23650
3177.000	0.80656	0.88116	-2.55654	0.29812
3178.000	0.77691	0.85929	-2.48551	0.31204
3179.000	0.80063	0.87520	-2.56444	0.18483
3180.000	0.75517	0.94084	-2.54471	0.27626
3181.000	0.78482	0.99850	-2.52497	0.25440
3182.000	0.80459	0.93088	-2.52103	0.29614
3183.000	0.83621	0.97264	-2.51708	0.32595
3184.000	0.81842	0.99452	-2.45788	0.30410
3185.000	0.79470	0.94878	-2.52892	0.27229
3186.000	0.77889	0.96669	-2.50327	0.38359
3187.000	0.81249	0.99452	-2.51116	0.39949
3188.000	0.85796	1.00644	-2.51116	0.47302
3189.000	0.87970	0.98257	-2.56838	0.41735
3190.000	0.85400	1.00246	-2.53287	0.52866
3191.000	0.88958	1.06410	-2.62362	0.56439
3192.000	0.99236	1.13565	-2.56444	0.62205
3193.000	1.06153	1.20919	-2.54668	0.72539
3194.000	1.07339	1.28076	-2.60390	0.75715
3195.000	1.13465	1.31254	-2.58614	0.82472
3196.000	1.18208	1.45763	-2.61771	0.92206
3197.000	1.21963	1.39003	-2.61376	0.91610
3198.000	1.24334	1.44766	-2.62165	0.87039
3199.000	1.20777	1.46159	-2.64730	0.85448
3200.000	1.25915	1.57486	-2.60981	0.91213
3201.000	1.23544	1.71597	-2.56641	0.97375
3202.000	1.22951	1.66431	-2.64927	0.72136
3203.000	1.18010	1.41191	-2.81299	0.95369
3204.000	1.24136	1.31647	-2.87215	1.87500
3205.000	1.44093	2.06746	-3.02792	3.00504
3206.000	1.64441	3.48175	-3.06735	4.11112
3207.000	2.12628	4.97749	-2.95892	5.40387
3208.000	13.34521	3.50315	-3.01215	6.71979
3209.000	-7.71475	7.37357	-3.22306	8.08181
3210.000	NaN	NaN	NaN	NaN
3211.000	NaN	NaN	NaN	NaN
3212.000	NaN	NaN	NaN	NaN
3213.000	NaN	NaN	NaN	NaN
3214.000	NaN	NaN	NaN	NaN
3215.000	NaN	NaN	NaN	NaN
3216.000	NaN	NaN	NaN	NaN
3217.000	NaN	NaN	NaN	NaN
3218.000	NaN	NaN	NaN	NaN
3219.000	NaN	NaN	NaN	NaN
3220.000	NaN	NaN	NaN	NaN
3221.000	NaN	NaN	NaN	NaN
3222.000	NaN	NaN	NaN	NaN
3223.000	NaN	NaN	NaN	NaN
3224.000	NaN	NaN	NaN	NaN
3225.000	NaN	NaN	NaN	NaN
3226.000	NaN	NaN	NaN	NaN
3227.000	NaN	NaN	NaN	NaN
3228.000	NaN	NaN	NaN	NaN
3229.000	NaN	NaN	NaN	NaN
3230.000	NaN	NaN	NaN	NaN
3231.000	NaN	NaN	NaN	NaN
3232.000	NaN	NaN	NaN	NaN
3233.000	NaN	NaN	NaN	NaN
3234.000	NaN	NaN	NaN	NaN
3235.000	NaN	NaN	NaN	NaN
3236.000	NaN	NaN	NaN	NaN
3237.000	NaN	NaN	NaN	NaN
3238.000	NaN	NaN	NaN	NaN
3239.000	NaN	NaN	NaN	NaN
3240.000	NaN	NaN	NaN	NaN
3241.000	NaN	NaN	NaN	NaN
3242.000	NaN	NaN	NaN	NaN
3243.000	NaN	NaN	NaN	NaN
3244.000	NaN	NaN	NaN	NaN
3245.000	NaN	NaN	NaN	NaN
3246.000	NaN	NaN	NaN	NaN
3247.000	NaN	NaN	NaN	NaN
3248.000	NaN	NaN	NaN	NaN
3249.000	NaN	NaN	NaN	NaN
3250.000	NaN	NaN	NaN	NaN
3251.000	NaN	NaN	NaN	NaN
3252.000	NaN	NaN	NaN	NaN
3253.000	NaN	NaN	NaN	NaN
3254.000	NaN	NaN	NaN	NaN
3255.000	NaN	NaN	NaN	NaN
3256.000	NaN	NaN	NaN	NaN
3257.000	NaN	NaN	NaN	NaN
3258.000	NaN	NaN	NaN	NaN
3259.000	NaN	NaN	NaN	NaN
3260.000	NaN	NaN	NaN	NaN
3261.000	NaN	NaN	NaN	NaN
3262.000	NaN	NaN	NaN	NaN
3263.000	NaN	NaN	NaN	NaN
3264.000	NaN	NaN	NaN	NaN
3265.000	NaN	NaN	NaN	NaN
3266.000	NaN	NaN	NaN	NaN
3267.000	NaN	NaN	NaN	NaN
3268.000	NaN	NaN	NaN	NaN
3269.000	NaN	NaN	NaN	NaN
3270.000	NaN	NaN	NaN	NaN
3271.000	NaN	NaN	NaN	NaN
3272.000	NaN	NaN	NaN	NaN
3273.000	NaN	NaN	NaN	NaN
3274.000	NaN	NaN	NaN	NaN
3275.000	NaN	NaN	NaN	NaN
3276.000	NaN	NaN	NaN	NaN
3277.000	NaN	NaN	NaN	NaN
3278.000	NaN	NaN	NaN	NaN
3279.000	NaN	NaN	NaN	NaN
3280.000	NaN	NaN	NaN	NaN
3281.000	NaN	NaN	NaN	NaN
3282.000	NaN	NaN	NaN	NaN
3283.000	NaN	NaN	NaN	NaN
3284.000	NaN	NaN	NaN	NaN
3285.000	NaN	NaN	NaN	NaN
3286.000	NaN	NaN	NaN	NaN
3287.000	NaN	NaN	NaN	NaN
3288.000	NaN	NaN	NaN	NaN
3289.000	NaN	NaN	NaN	NaN
3290.000	NaN	NaN	NaN	NaN
3291.000	NaN	NaN	NaN	NaN
3292.000	NaN	NaN	NaN	NaN
3293.000	NaN	NaN	NaN	NaN
3294.000	3.20336	11.46262	NaN	NaN
3295.000	5.59094	10.60663	NaN	NaN
3296.000	7.93207	9.34271	1.83403	10.21812
3297.000	7.84090	8.78546	2.13418	10.05833
3298.000	7.73222	8.35980	2.31579	9.46247
3299.000	7.73804	7.85734	2.35723	9.01098
3300.000	7.79821	7.44771	2.43420	8.38705
3301.000	7.73028	7.13857	2.45788	7.83562
3302.000	7.68563	6.84408	2.47959	7.31795
3303.000	7.63125	6.50065	2.48354	6.90498
3304.000	7.50692	6.34085	2.53879	6.42235
3305.000	7.38057	6.17500	2.61968	6.02719
3306.000	7.36307	5.94307	2.60587	5.61026
3307.000	7.29306	5.76434	2.61968	5.31086
3308.000	7.37863	5.48186	2.71240	5.02268
3309.000	7.27166	5.33452	2.68281	4.88670
3310.000	7.25415	5.24667	2.63152	4.63033
3311.000	7.30862	5.24408	2.65913	4.38730
3312.000	7.32418	5.15388	2.74001	4.26253
3313.000	7.40002	5.21366	2.78538	4.13983
3314.000	7.35335	5.30225	2.82482	4.12585
3315.000	7.36696	5.38424	2.87018	4.11581
3316.000	7.42918	5.51055	2.88596	4.08017
3317.000	7.39029	5.56576	3.02004	4.08166
3318.000	7.35335	5.55254	3.03187	4.12707
3319.000	7.35724	5.64044	2.98849	4.15293
3320.000	7.35141	5.66591	3.02595	4.18836
3321.000	7.40390	5.67501	3.03384	4.20809
3322.000	7.36502	5.70677	2.99441	4.22800
3323.000	7.28722	5.78395	2.99244	4.34654
3324.000	7.34168	5.74027	3.05749	4.37393
3325.000	7.32418	5.70533	3.01215	4.49261
3326.000	7.28333	5.69804	2.99441	4.37024
3327.000	7.28722	5.69213	3.05158	4.38186
3328.000	7.30667	5.75244	3.04369	4.45693
3329.000	7.24442	5.70243	3.01609	4.51628
3330.000	7.27750	5.66294	3.02792	4.55177
3331.000	7.25026	5.71018	3.00821	4.60318
3332.000	7.26972	5.75096	3.04567	4.60697
3333.000	7.23081	5.69870	2.97469	4.68227
3334.000	7.21135	5.59926	3.02792	4.67415
3335.000	7.27166	5.76266	3.02989	4.72347
3336.000	7.16853	5.66820	3.00624	4.64858
3337.000	7.22886	5.60295	3.04369	4.73525
3338.000	7.24053	5.69662	3.01609	4.71564
3339.000	7.24053	5.69467	3.02989	4.72544
3340.000	7.23664	5.68885	3.00821	4.67028
3341.000	7.25221	5.63980	3.04961	4.74114
3342.000	7.28722	5.68822	3.03581	4.73134
3343.000	7.22108	5.73790	2.99441	4.71376
3344.000	7.19967	5.68736	3.01412	4.77089
3345.000	7.19578	5.71672	3.03581	4.73528
3346.000	7.25610	5.69056	2.97863	4.72369
3347.000	7.18994	5.71875	2.92342	4.66669
3348.000	7.20940	5.69115	2.97075	4.68820
3349.000	7.15296	5.63516	2.94117	4.71596
3350.000	7.19189	5.66791	2.98258	4.66842
3351.000	7.18216	5.76184	2.93131	4.67653
3352.000	7.24442	5.65553	2.97863	4.74342
3353.000	7.21913	5.64803	2.91357	4.73186
3354.000	7.22108	5.76330	2.96089	4.70206
3355.000	7.20940	5.73219	2.93328	4.73770
3356.000	7.28528	5.62962	2.93723	4.66861
3357.000	7.14713	5.66065	2.86229	4.73602
3358.000	7.17243	5.73656	2.89779	4.67272
3359.000	7.21524	5.73016	2.89385	4.73589
3360.000	7.21719	5.75749	2.96286	4.71587
3361.000	7.17632	5.72283	2.86821	4.75573
3362.000	7.24248	5.70637	2.88990	4.76156
3363.000	7.13155	5.67061	2.90765	4.76543
3364.000	7.30084	5.75642	2.88596	4.80104
3365.000	7.22302	5.76132	2.91357	4.75554
3366.000	7.17437	5.73067	2.90962	4.83250
3367.000	7.22691	5.68897	2.91751	4.78117
3368.000	7.18994	5.69334	2.89976	4.75757
3369.000	7.18216	5.73839	2.89187	4.73984
3370.000	7.23664	5.65172	2.88201	4.72804
3371.000	7.22691	5.63230	2.91751	4.76539
3372.000	7.20551	5.62474	2.90568	4.73781
3373.000	7.19773	5.70693	2.90962	4.73188
3374.000	7.21135	5.66181	2.90962	4.72793
3375.000	7.21135	5.74388	2.90765	4.73188
3376.000	7.20551	5.76740	2.93723	4.77912
3377.000	7.21135	5.74584	2.91751	4.72987
3378.000	7.30667	5.68602	2.93920	4.73767
3379.000	7.17437	5.68181	2.90962	4.69241
3380.000	7.21913	5.73206	2.87215	4.70638
3381.000	7.24248	5.82749	2.95300	4.78102
3382.000	7.21329	5.76340	2.97075	4.76516
3383.000	7.25221	5.81174	2.96089	4.77902
3384.000	7.18410	5.82042	2.93920	4.80673
3385.000	7.23275	5.77487	2.94117	4.78305
3386.000	7.20356	5.92955	2.93526	4.78899
3387.000	7.18410	5.82629	2.95695	4.78692
3388.000	7.20940	5.78299	2.89582	4.77140
3389.000	7.17632	5.84397	2.95892	4.77902
3390.000	7.17437	5.81664	2.93131	4.77125
3391.000	7.19189	5.83595	2.99046	4.79072
3392.000	7.21913	5.75551	2.93723	4.79490
3393.000	7.19773	5.76164	2.96878	4.83422
3394.000	7.20940	5.78494	2.96286	4.81649
3395.000	7.20940	5.82206	2.95497	4.85401
3396.000	7.17632	5.78731	2.96680	4.78688
3397.000	7.15102	5.79154	2.94906	4.77907
3398.000	7.18410	5.75791	3.00624	4.72555
3399.000	7.12377	5.73912	3.01018	4.74723
3400.000	7.17437	5.74240	2.97469	4.72173
3401.000	7.11014	5.73733	2.98455	4.76510
3402.000	7.13545	5.79955	2.96286	4.75336
3403.000	7.13155	5.75270	2.94314	4.76725
3404.000	7.17632	5.73651	2.99638	4.76505
3405.000	7.16075	5.80705	2.93920	4.64689
3406.000	7.16464	5.72884	2.98849	4.73154
3407.000	7.12961	5.65695	3.01018	4.66435
3408.000	7.20551	5.70878	3.01412	4.69394
3409.000	7.13934	5.72329	2.95103	4.74946
3410.000	7.12182	5.72351	3.00229	4.75319
3411.000	7.06147	5.78484	2.99835	4.72163
3412.000	7.14713	5.79159	3.03778	4.73133
3413.000	7.16464	5.67216	3.02004	4.74719
3414.000	7.16464	5.76010	2.99638	4.71967
3415.000	7.14907	5.75248	2.99046	4.79664
3416.000	7.14713	5.85410	2.97272	4.78291
3417.000	7.13350	5.76245	2.99244	4.76704
3418.000	7.12571	5.70587	2.96089	4.79480
3419.000	7.19773	5.91400	2.94511	4.76133
3420.000	7.19773	5.72842	3.00032	4.79857
3421.000	7.11403	5.78028	2.97272	4.76318
3422.000	7.11403	5.68842	2.94314	4.75936
3423.000	7.19967	5.82218	3.00624	4.74330
3424.000	7.14713	5.83652	2.97863	4.69212
3425.000	7.17243	5.75219	2.96089	4.70798
3426.000	7.25999	5.96005	3.00229	4.76700
3427.000	7.21329	5.82591	2.97469	4.73949
3428.000	7.20746	5.76738	2.93131	4.70810
3429.000	7.17048	5.85185	2.97666	4.73949
3430.000	7.13739	5.80929	2.95103	4.69618
3431.000	7.11987	5.71376	2.96089	4.68825
3432.000	7.22886	5.81790	3.00229	4.68215
3433.000	7.18216	5.78528	2.93131	4.77520
3434.000	7.24248	5.74935	2.93131	4.72389
3435.000	7.20162	5.89638	2.91357	4.72791
3436.000	7.13934	5.82295	2.97075	4.75135
3437.000	7.20551	5.92171	2.93131	4.70416
3438.000	7.15102	5.86968	2.91751	4.76539
3439.000	7.12182	5.87005	2.92737	4.71404
3440.000	7.13739	5.79366	2.97075	4.68623
3441.000	7.14518	5.86390	2.99441	4.73152
3442.000	7.16659	5.84604	2.99244	4.67824
3443.000	7.04978	5.85924	2.95103	4.66855
3444.000	7.09651	5.90749	2.91159	4.71213
3445.000	7.11793	5.84666	2.92934	4.62719
3446.000	7.09067	5.77666	2.92737	4.66273
3447.000	7.06926	5.78670	2.94511	4.59554
3448.000	7.09262	5.79618	2.94117	4.65083
3449.000	7.09262	5.88215	2.91751	4.59171
3450.000	7.12571	5.77427	2.88399	4.59184
3451.000	7.04978	5.82798	2.92934	4.57982
3452.000	7.10235	5.71984	2.92737	4.58180
3453.000	7.02447	5.80484	2.94117	4.58372
3454.000	7.11793	5.84080	2.89187	4.56220
3455.000	7.08483	5.79237	2.93328	4.58572
3456.000	7.09067	5.86068	2.92737	4.59364
3457.000	7.06147	5.84933	2.94117	4.61530
3458.000	7.04005	5.84959	3.02004	4.60905
3459.000	7.04978	5.77717	2.94709	4.65080
3460.000	7.04784	5.82019	2.99638	4.55190
3461.000	7.07120	5.75736	2.89976	4.59968
3462.000	7.06342	5.83758	2.92342	4.59563
3463.000	7.08483	5.83731	2.86427	4.55639
3464.000	7.02252	5.72668	2.93526	4.64493
3465.000	7.06536	5.81215	2.96680	4.58953
3466.000	7.11209	5.84673	2.96878	4.58755
3467.000	7.06147	5.79070	2.89582	4.61943
3468.000	7.10625	5.79601	2.96483	4.63691
3469.000	7.11209	5.78226	2.96878	4.62505
3470.000	7.02252	5.77360	2.96089	4.60930
3471.000	7.05563	5.73996	2.90962	4.57200
3472.000	7.05563	5.77905	2.96089	4.64088
3473.000	7.09457	5.78834	2.93920	4.64689
3474.000	7.09457	5.85477	2.97863	4.61317
3475.000	7.03810	5.72454	2.99441	4.61508
3476.000	7.12377	5.84463	2.93526	4.58966
3477.000	7.10041	5.78631	2.98061	4.66251
3478.000	7.05952	5.78877	2.94709	4.75145
3479.000	7.02447	5.73644	2.99638	4.64665
3480.000	7.10235	5.87811	2.97075	4.67242
3481.000	7.08289	5.84906	2.94709	4.62712
3482.000	7.07315	5.84136	2.93920	4.69031
3483.000	7.05757	5.81811	3.00624	4.63279
3484.000	7.05563	5.81423	2.97075	4.66452
3485.000	7.08289	5.84906	2.93526	4.64493
3486.000	7.08483	5.76696	2.96286	4.70797
3487.000	7.12571	5.79186	2.97666	4.66450
3488.000	7.11598	5.85255	2.95300	4.71788
3489.000	7.12182	5.82121	2.98455	4.58748
3490.000	7.11987	5.86617	2.99638	4.69796
3491.000	7.05952	5.88452	2.99638	4.61902
3492.000	7.13934	5.86006	2.99441	4.66442
3493.000	7.10041	5.86056	2.98849	4.67826
3494.000	7.02836	5.88491	2.94906	4.68237
3495.000	7.10625	5.85267	3.03187	4.63663
3496.000	7.05563	5.86503	2.99046	4.65852
3497.000	7.09457	5.85282	2.96286	4.61718
3498.000	7.11987	5.92868	3.01609	4.64657
3499.000	7.07899	5.90771	2.96286	4.63495
3500.000	7.16464	5.83435	2.97469	4.61319
3501.000	7.06342	5.89814	2.95103	4.64092
3502.000	7.12571	5.92469	3.00229	4.69991
3503.000	7.11014	5.84481	2.96286	4.66258
3504.000	7.04394	5.84173	3.01215	4.60513
3505.000	7.02057	5.85375	2.99244	4.60324
3506.000	7.10625	5.89760	2.98652	4.67432
3507.000	7.07704	5.85304	2.96483	4.58954
3508.000	7.08678	5.82361	2.99244	4.58943
3509.000	7.04784	5.85536	2.96286	4.66061
3510.000	7.08873	5.86657	3.02201	4.63273
3511.000	7.04589	5.91399	3.02004	4.61102
3512.000	7.02642	5.91424	2.98258	4.68815
3513.000	7.10819	5.90734	3.02595	4.60705
3514.000	7.04978	5.85338	3.00229	4.72359
3515.000	7.07315	5.89607	3.02201	4.61891
3516.000	7.06536	5.90593	2.97272	4.66846
3517.000	7.00694	5.85782	2.97469	4.61319
3518.000	7.05368	5.85724	2.95300	4.62907
3519.000	7.02836	5.82238	3.00821	4.61502
3520.000	7.07315	5.91755	3.03581	4.62280
3521.000	7.05952	5.87670	3.00624	4.58937
3522.000	7.04005	5.82615	2.95497	4.62709
3523.000	7.05952	5.87084	2.97666	4.59739
3524.000	7.08094	5.80023	3.00821	4.59331
3525.000	7.12182	5.83489	3.02004	4.62287
3526.000	7.04978	5.83580	3.00229	4.60123
3527.000	7.07899	5.85497	2.99441	4.58942
3528.000	7.04200	5.83198	2.97863	4.59343
3529.000	7.03810	5.86916	3.03975	4.61094
3530.000	7.01473	5.81278	3.01215	4.59329
3531.000	7.01473	5.78151	2.97272	4.64478
3532.000	7.02642	5.80482	3.02004	4.54983
3533.000	7.03031	5.81650	3.02004	4.63471
3534.000	7.10041	5.84297	2.97666	4.63686
3535.000	7.04394	5.82805	2.98849	4.63089
3536.000	7.01863	5.87526	2.94314	4.67648
3537.000	7.01668	5.81862	3.05158	4.64641
3538.000	7.05563	5.83963	3.02989	4.66624
3539.000	7.03031	5.84190	3.05355	4.65825
3540.000	7.06342	5.84735	3.01609	4.67617
3541.000	7.03810	5.80858	2.98849	4.62300
3542.000	7.06926	5.90198	2.95695	4.60142
3543.000	7.07704	5.85304	3.02989	4.68795
3544.000	7.09262	5.92902	3.00624	4.64858
3545.000	7.00110	5.83249	3.00426	4.64464
3546.000	7.02057	5.88501	3.05355	4.57338
3547.000	7.06342	5.84344	2.98455	4.72169
3548.000	7.04784	5.85731	3.02792	4.70967
3549.000	7.01084	5.81869	2.99638	4.64073
3550.000	7.04394	5.89448	3.00624	4.63477
3551.000	7.08289	5.85101	3.00624	4.64464
3552.000	7.04784	5.84168	2.99046	4.65852
3553.000	6.99720	5.80518	3.06932	4.64042
3554.000	7.03810	5.83594	3.02595	4.62284
3555.000	7.02447	5.79507	3.01215	4.67027
3556.000	7.02252	5.89866	2.99046	4.61115
3557.000	7.01084	5.80501	2.97469	4.65661
3558.000	7.00889	5.80699	3.02989	4.61888
3559.000	7.04394	5.83001	3.01609	4.64262
3560.000	7.02252	5.81073	3.04961	4.67603
3561.000	7.02642	5.82632	3.05158	4.65036
3562.000	7.03031	5.81454	3.02989	4.67019
3563.000	7.03810	5.86330	3.01609	4.64262
3564.000	7.06536	5.81020	3.02201	4.63273
3565.000	6.98162	5.81710	3.02004	4.66431
3566.000	7.10041	5.78436	3.01215	4.63672
3567.000	7.03226	5.77152	3.03581	4.64451
3568.000	7.02642	5.79700	3.03975	4.63857
3569.000	7.00110	5.78168	3.07129	4.63054
3570.000	6.99915	5.82666	3.03975	4.65041
3571.000	7.01668	5.81862	3.01807	4.63866
3572.000	7.03615	5.84378	2.98652	4.68419
3573.000	6.99915	5.84620	2.98061	4.65264
3574.000	6.95046	5.73929	2.96483	4.63889
3575.000	7.00110	5.81491	3.03581	4.69977
3576.000	6.90565	5.73592	3.00821	4.64068
3577.000	7.00499	5.84222	3.04369	4.56157
3578.000	7.02252	5.78923	3.07524	4.63644
3579.000	6.98357	5.83662	3.02398	4.64259
3580.000	6.95240	5.80769	3.04764	4.61880
3581.000	6.98552	5.74473	3.06144	4.60887
3582.000	7.02057	5.80880	3.03581	4.61688
3583.000	6.95825	5.79589	3.03778	4.64845
3584.000	6.95630	5.77832	3.13043	4.59673
3585.000	6.95240	5.81941	3.01412	4.66828
3586.000	6.95046	5.82139	3.02398	4.67022
3587.000	6.97967	5.77803	3.04172	4.65633
3588.000	6.94851	5.74714	2.98455	4.66446
3589.000	7.00110	5.84031	2.99638	4.69599
3590.000	6.94851	5.84878	3.04369	4.60105
3591.000	6.99136	5.76030	2.99244	4.67232
3592.000	6.87837	5.75189	3.02004	4.60510
3593.000	6.95435	5.78030	3.09495	4.68964
3594.000	6.96799	5.72930	2.99835	4.64269
3595.000	6.92708	5.77477	2.98652	4.69208
3596.000	6.90954	5.77889	3.01215	4.68408
3597.000	6.92318	5.73376	3.02989	4.61888
3598.000	6.94656	5.74129	2.93526	4.68243
3599.000	6.97578	5.79567	2.99638	4.64468
3600.000	6.94071	5.78242	3.04567	4.60697
3601.000	6.92903	5.76106	2.98455	4.59735
3602.000	6.95825	5.78416	2.98455	4.63288
3603.000	6.94071	5.77851	3.03187	4.66821
3604.000	6.90759	5.72417	3.04369	4.65040
3605.000	6.95435	5.73729	2.99638	4.63678
3606.000	6.95825	5.71965	3.09692	4.59293
3607.000	6.96799	5.75863	3.02989	4.63467
3608.000	6.86278	5.74817	2.99835	4.63677
3609.000	6.86862	5.75983	3.05355	4.66022
3610.000	6.97773	5.73505	3.01609	4.62288
3611.000	6.92708	5.75326	2.99244	4.66640
3612.000	6.89590	5.74973	3.04567	4.64249
3613.000	6.94461	5.69439	3.00426	4.59530
3614.000	6.97383	5.74096	3.02792	4.64849
3615.000	6.99915	5.75434	2.99046	4.58746
3616.000	6.92513	5.72787	2.98652	4.55194
3617.000	6.91734	5.74947	2.98455	4.52628
3618.000	6.96799	5.78404	3.01609	4.57748
3619.000	6.93682	5.71404	3.07129	4.60094
3620.000	6.90175	5.74184	3.03778	4.53199
3621.000	6.93682	5.74337	3.03975	4.65239
3622.000	6.90954	5.77693	3.03778	4.65239
3623.000	6.90759	5.74177	3.05355	4.61878
3624.000	6.95240	5.75686	3.08115	4.56339
3625.000	6.96799	5.70780	3.02201	4.67220
3626.000	6.99331	5.77591	3.01609	4.61104
3627.000	6.96799	5.71757	2.99835	4.52425
3628.000	6.87642	5.71672	2.91554	4.60948
3629.000	6.76727	5.61237	2.81299	4.52697
3630.000	6.67952	5.80510	2.70253	4.47801
3631.000	6.55077	5.74791	2.49735	4.47084
3632.000	6.38291	5.76938	2.39276	4.19449
3633.000	6.12699	5.68994	2.22893	4.21870
3634.000	5.89822	5.64333	1.99202	4.19957
3635.000	5.63794	5.62629	1.78466	4.04973
3636.000	5.45971	5.60248	1.59898	3.97689
3637.000	5.14217	5.40707	1.37178	3.85456
3638.000	4.84591	5.28766	1.16825	3.88853
3639.000	4.54153	5.09522	0.98050	3.78777
3640.000	4.35681	5.04926	0.82633	3.67305
3641.000	4.03628	4.80312	0.62273	3.54640
3642.000	3.82180	4.78464	0.39935	3.50490
3643.000	3.75684	4.82836	0.27282	3.38601
3644.000	3.49495	4.76271	0.06326	3.47327
3645.000	3.24868	4.71262	-0.14037	3.37811
3646.000	3.14620	4.68152	-0.27085	3.45936
3647.000	3.04961	4.71944	-0.38156	3.48509
3648.000	2.89187	4.61155	-0.55750	3.51473
3649.000	2.68675	4.49585	-0.75912	3.52054
3650.000	2.57627	4.44883	-0.93109	3.45894
3651.000	2.44210	4.32875	-1.02595	3.37362
3652.000	2.26052	4.21466	-1.23148	3.29013
3653.000	2.14405	4.18928	-1.33226	3.28405
3654.000	2.08877	4.02328	-1.41327	3.23636
3655.000	1.95845	4.05526	-1.49230	3.14901
3656.000	1.85971	3.89917	-1.49823	3.09943
3657.000	1.80836	3.92303	-1.60096	3.00608
3658.000	1.86366	4.02581	-1.62269	3.01398
3659.000	1.76293	3.99833	-1.75700	2.99394
3660.000	1.69775	4.00836	-1.85773	3.03740
3661.000	1.68195	4.03609	-1.93080	2.93416
3662.000	1.60688	4.00260	-2.03941	2.98156
3663.000	1.47649	3.95931	-2.10456	3.02704
3664.000	1.49032	4.03647	-2.13615	2.93379
3665.000	1.43698	3.99104	-2.23683	2.99902
3666.000	1.35992	3.96148	-2.19538	2.94557
3667.000	1.39746	3.96538	-2.20130	3.05262
3668.000	1.43303	3.95146	-2.22104	2.94750
3669.000	1.48835	3.88406	-2.16181	2.94564
3670.000	1.52984	3.88003	-2.10456	3.04488
3671.000	1.56145	3.82850	-2.05520	3.01920
3672.000	1.64244	3.81845	-1.98609	2.96579
3673.000	1.69775	3.88763	-2.00584	2.98955
3674.000	1.72343	3.86778	-1.99004	2.99553
3675.000	1.66614	3.98072	-1.92685	3.04323
3676.000	1.74120	3.93702	-1.96042	2.97972
3677.000	1.67404	3.89757	-1.96635	2.97773
3678.000	1.69577	3.94899	-1.95450	2.98370
3679.000	1.66614	3.94311	-1.95252	2.99758
3680.000	1.63849	3.91942	-2.04138	2.95578
3681.000	1.59898	3.98679	-1.96042	2.96187
3682.000	1.65232	4.05792	-2.07495	2.97158
3683.000	1.61281	3.96895	-2.10654	3.00126
3684.000	1.56145	3.98488	-2.06902	2.97357
3685.000	1.52589	3.89588	-2.11048	2.97944
3686.000	1.55354	4.00666	-2.05718	2.98946
3687.000	1.53181	3.92160	-2.06902	2.97754
3688.000	1.55157	4.01854	-2.09666	2.98740
3689.000	1.53774	3.96909	-2.06705	3.02711
3690.000	1.53379	3.97504	-2.08482	3.07267
3691.000	1.49428	3.96719	-2.11641	3.07856
3692.000	1.58120	4.06993	-2.05520	3.07471
3693.000	1.54564	3.99678	-2.03546	3.10845
3694.000	1.47649	4.02264	-2.01374	3.05695
3695.000	1.45871	3.95340	-2.03348	3.07872
3696.000	1.53379	3.95326	-2.07692	3.07665
3697.000	1.47452	3.97910	-2.04533	3.10645
3698.000	1.55157	3.99479	-1.99202	3.10259
3699.000	1.47847	3.95732	-2.06112	3.07074
3700.000	1.50020	3.94937	-2.01176	3.07678
3701.000	1.55947	3.98488	-2.01176	3.04704
3702.000	1.51206	3.99883	-2.05915	3.07470
3703.000	1.47847	3.99295	-2.03151	3.07079
3704.000	1.49230	4.00282	-2.05718	3.06083
3705.000	1.52391	3.97505	-2.01176	3.06686
3706.000	1.44883	3.93362	-2.02163	3.02719
3707.000	1.51403	3.97903	-2.10654	3.08651
3708.000	1.45476	3.94945	-2.05718	3.07669
3709.000	1.46266	3.94547	-2.03743	3.02915
3710.000	1.47452	3.89201	-2.04730	3.11636
3711.000	1.50218	3.95926	-2.08679	3.02509
3712.000	1.54367	3.99679	-2.04533	3.06878
3713.000	1.53379	3.91764	-2.06507	3.00134
3714.000	1.50810	3.96519	-2.06507	3.00134
3715.000	1.53971	4.02846	-2.12628	3.01312
3716.000	1.49230	3.89000	-2.08087	2.96364
3717.000	1.56540	4.03039	-2.11641	3.04486
3718.000	1.54564	3.95522	-2.07495	2.98348
3719.000	1.51206	4.00872	-2.02756	3.00934
3720.000	1.50810	3.99883	-2.09074	2.97155
3721.000	1.48242	4.02263	-2.06902	2.96366
3722.000	1.57527	3.97298	-2.04138	3.01724
3723.000	1.52391	3.91963	-2.08877	2.99336
3724.000	1.50020	4.02655	-2.05718	3.01523
3725.000	1.51008	4.01862	-2.06705	3.02314
3726.000	1.56540	3.98685	-2.10259	2.96161
3727.000	1.53181	3.94733	-2.07889	3.01916
3728.000	1.48242	3.93356	-2.01769	2.94987
3729.000	1.53379	4.02847	-2.12233	2.98933
3730.000	1.50020	3.90186	-2.07100	2.96564
3731.000	1.54564	3.90970	-2.14800	2.88419
3732.000	1.54959	3.88989	-2.07297	2.94581
3733.000	1.46464	3.91776	-2.10061	2.91799
3734.000	1.52193	3.90776	-2.13418	2.91000
3735.000	1.52391	3.91172	-2.09666	2.87834
3736.000	1.49428	3.87218	-2.07889	2.94976
3737.000	1.52391	3.86816	-2.14997	2.87229
3738.000	1.51798	3.89589	-2.07692	2.82880
3739.000	1.49230	3.89989	-2.10851	2.83469
3740.000	1.52786	3.91171	-2.05718	2.86651
3741.000	1.49032	3.82467	-2.09074	2.83274
3742.000	1.49823	3.85435	-2.12430	2.84061
3743.000	1.51996	3.89787	-2.14405	2.79893
3744.000	1.52984	3.89389	-2.13023	2.80490
3745.000	1.54367	3.86813	-2.13418	2.76919
3746.000	1.54367	3.88397	-2.13615	2.78506
3747.000	1.53774	3.90179	-2.07692	2.79706
3748.000	1.55947	3.88592	-2.12430	2.76921
3749.000	1.56145	3.89779	-2.07889	2.86647
3750.000	1.56737	3.90570	-2.08087	2.82681
3751.000	1.53576	3.86814	-2.06310	2.74750
3752.000	1.53576	3.85231	-2.09666	2.79901
3753.000	1.55947	3.87998	-2.12430	2.79896
3754.000	1.55947	3.89581	-2.03743	2.80903
3755.000	1.51996	3.91568	-2.08284	2.80102
3756.000	1.51206	3.90382	-2.16379	2.83855
3757.000	1.54367	3.83249	-2.11838	2.85450
3758.000	1.47847	3.84053	-2.09074	2.84464
3759.000	1.56145	3.92748	-2.13812	2.80290
3760.000	1.57132	3.98288	-2.09271	2.86645
3761.000	1.56540	3.89778	-2.09864	2.80099
3762.000	1.52391	3.90974	-2.11641	2.76129
3763.000	1.50218	3.91769	-2.04928	2.79711
3764.000	1.56145	3.96509	-2.11641	2.78906
3765.000	1.51206	3.96122	-2.14010	2.76918
3766.000	1.58120	3.94130	-2.09666	2.77521
3767.000	1.55749	3.93145	-2.13220	2.79300
3768.000	1.54762	3.91365	-2.12036	2.76723
3769.000	1.56737	3.93143	-2.10456	2.77123
3770.000	1.56342	3.94133	-2.07692	2.75541
3771.000	1.55354	3.93343	-2.18550	2.78497
3772.000	1.54169	3.94731	-2.10654	2.79106
3773.000	1.53971	3.95523	-2.10061	2.77322
3774.000	1.56935	3.89778	-2.06112	2.79312
3775.000	1.54169	3.96908	-2.07100	2.76335
3776.000	1.55749	3.95520	-2.03151	2.78722
3777.000	1.53181	3.96316	-2.09469	2.79108
3778.000	1.53576	3.94138	-2.10259	2.79702
3779.000	1.53181	3.93743	-2.14207	2.76125
3780.000	1.55157	3.97896	-2.14602	2.76322
3781.000	1.52391	3.91567	-2.07889	2.75342
3782.000	1.53181	3.89784	-2.08679	2.79308
3783.000	1.54367	3.95127	-2.09864	2.78512
3784.000	1.53181	3.96514	-2.13220	2.73944
3785.000	1.59700	3.93731	-2.06705	2.85063
3786.000	1.51601	3.95923	-2.13220	2.80093
3787.000	1.60096	3.98085	-2.13220	2.70771
3788.000	1.51996	3.90776	-2.08284	2.77523
3789.000	1.49823	3.93156	-2.08877	2.80101
3790.000	1.50218	3.96718	-2.09666	2.79504
3791.000	1.53774	4.00867	-2.02163	2.72178
3792.000	1.48835	3.96324	-2.08877	2.77919
3793.000	1.53774	3.97899	-2.11246	2.80493
3794.000	1.49032	3.97511	-2.04335	2.75745
3795.000	1.54367	3.95523	-2.08482	2.74349
3796.000	1.48242	3.89595	-2.10259	2.81487
3797.000	1.51206	3.92163	-2.10654	2.78709
3798.000	1.49823	3.95531	-2.07692	2.83871
3799.000	1.50218	3.92165	-2.08284	2.77325
3800.000	1.53971	3.85824	-2.09666	2.75736
3801.000	1.53774	3.91367	-2.07889	2.76334
3802.000	1.49230	3.93157	-2.10654	2.81486
3803.000	1.47254	3.82866	-2.09469	2.75736
3804.000	1.51601	3.93548	-2.10259	2.78908
3805.000	1.52786	3.98296	-2.11048	2.79502
3806.000	1.48242	3.91773	-2.06310	2.80304
3807.000	1.49428	3.88010	-2.05125	2.74950
3808.000	1.48835	3.87417	-2.04533	2.78522
3809.000	1.50810	3.85433	-2.05125	2.80306
3810.000	1.53774	3.91763	-2.06507	2.73163
3811.000	1.50810	3.83058	-2.08877	2.74547
3812.000	1.54367	3.89782	-2.05915	2.75742
3813.000	1.51403	3.83255	-2.07889	2.82284
3814.000	1.53181	3.78500	-2.03546	2.79912
3815.000	1.49823	3.88603	-2.11048	2.83667
3816.000	1.51403	3.82067	-2.04928	2.81100
3817.000	1.47649	3.84251	-2.02756	2.82293
3818.000	1.47254	3.82470	-2.01966	2.79518
3819.000	1.48637	3.84843	-2.04533	2.80505
3820.000	1.43105	3.83071	-2.01374	2.75750
3821.000	1.49230	3.79695	-1.98412	2.67820
3822.000	1.43105	3.82477	-2.07297	2.79707
3823.000	1.49428	3.79100	-2.00386	2.82694
3824.000	1.49230	3.82466	-2.01571	2.82692
3825.000	1.45476	3.83265	-2.02163	2.78526
3826.000	1.44291	3.87029	-2.06507	2.79510
3827.000	1.47057	3.84648	-2.03348	2.71184
3828.000	1.42513	3.84062	-2.00781	2.75751
3829.000	1.45476	3.83661	-2.01176	2.80114
3830.000	1.47254	3.82668	-1.98017	2.78136
3831.000	1.46266	3.84451	-1.98214	2.76747
3832.000	1.44093	3.84455	-2.01571	2.78924
3833.000	1.45674	3.82869	-2.01374	2.81502
3834.000	1.45871	3.85640	-1.97622	2.81905
3835.000	1.47452	3.83855	-1.98412	2.78334
3836.000	1.45476	3.82671	-1.97819	2.77740
3837.000	1.43303	3.76536	-1.94067	2.80126
3838.000	1.41920	3.76935	-1.96437	2.83891
3839.000	1.46662	3.76531	-1.94660	2.79530
3840.000	1.42117	3.82875	-1.99991	2.87653
3841.000	1.43896	3.85841	-1.95845	2.84685
3842.000	1.42513	3.78122	-1.93475	2.83499
3843.000	1.43896	3.76733	-1.98609	2.83887
3844.000	1.37573	3.77932	-1.97227	2.88649
3845.000	1.44291	3.82673	-1.91698	2.82114
3846.000	1.38363	3.76742	-1.95055	2.78935
3847.000	1.35795	3.74568	-1.97029	2.80915
3848.000	1.41327	3.76936	-1.91895	2.82113
3849.000	1.37573	3.79120	-1.97819	2.83095
3850.000	1.40734	3.77134	-1.97227	2.81708
3851.000	1.43105	3.75942	-1.93870	2.79928
3852.000	1.50613	3.79692	-1.95647	2.85082
3853.000	1.37375	3.79714	-1.91698	2.76560
3854.000	1.44093	3.75743	-1.95647	2.80322
3855.000	1.37375	3.72783	-1.87946	2.81326
3856.000	1.42117	3.76340	-1.91105	2.84495
3857.000	1.39944	3.73175	-1.92488	2.84294
3858.000	1.37178	3.74962	-1.93672	2.79135
3859.000	1.38363	3.77534	-1.93475	2.83499
3860.000	1.38363	3.79316	-1.91303	2.82908
3861.000	1.40339	3.77729	-1.96240	2.79329
3862.000	1.44093	3.80297	-1.91500	2.81916
3863.000	1.43698	3.76932	-1.91500	2.83701
3864.000	1.42710	3.77527	-1.90513	2.91834
3865.000	1.36980	3.72784	-1.95055	2.84687
3866.000	1.42315	3.78716	-1.94660	2.87464
3867.000	1.37968	3.79713	-1.95055	2.82703
3868.000	1.38363	3.82683	-1.89328	2.83506
3869.000	1.41722	3.76341	-1.90908	2.80131
3870.000	1.43105	3.73566	-1.94857	2.82704
3871.000	1.42117	3.78914	-1.95252	2.80918
3872.000	1.36783	3.77339	-1.91698	2.82709
3873.000	1.39154	3.74959	-1.88933	2.84895
3874.000	1.44291	3.85049	-1.88735	2.87672
3875.000	1.40537	3.79907	-1.89723	2.84894
3876.000	1.41525	3.79113	-1.84391	2.85696
3877.000	1.40142	3.80700	-1.86563	2.93626
3878.000	1.37771	3.74565	-1.89328	2.84696
3879.000	1.43303	3.76140	-1.89130	2.86482
3880.000	1.40734	3.86045	-1.90118	2.88463
3881.000	1.36783	3.80111	-1.90315	2.82513
3882.000	1.38561	3.87830	-1.89525	2.86679
3883.000	1.39944	3.73769	-1.95450	2.80521
3884.000	1.46266	3.79106	-1.89130	2.78349
3885.000	1.38956	3.79514	-1.89130	2.81126
3886.000	1.40339	3.78917	-1.91105	2.76561
3887.000	1.41327	3.79906	-1.91500	2.77949
3888.000	1.43896	3.71980	-1.89130	2.77556
3889.000	1.40932	3.73174	-1.88933	2.85093
3890.000	1.43303	3.74358	-1.85378	2.77165
3891.000	1.43500	3.80892	-1.87748	2.75772
3892.000	1.39549	3.77928	-1.87946	2.72995
3893.000	1.40932	3.78520	-1.90118	2.83306
3894.000	1.40339	3.78719	-1.92883	2.76954
3895.000	1.35795	3.81103	-1.95252	2.78339
3896.000	1.32633	3.69621	-1.90513	2.77355
3897.000	1.28681	3.74579	-1.90118	2.72991
3898.000	1.32831	3.72196	-1.92093	2.66640
3899.000	1.43303	3.76140	-1.83008	2.64074
3900.000	1.41920	3.71984	-1.75305	2.65077
3901.000	1.59305	3.70964	-1.65034	2.70052
3902.000	1.72145	3.63216	-1.49625	2.72652
3903.000	1.88538	3.56648	-1.31250	2.66521
3904.000	1.90710	3.55851	-1.07141	2.67140
3905.000	2.15787	3.63123	-0.89156	2.65368
3906.000	2.38684	3.67223	-0.71564	2.75303
3907.000	2.55852	3.65790	-0.54168	2.72335
3908.000	2.82877	3.60959	-0.38946	2.80876
3909.000	2.93723	3.62706	-0.17991	2.82072
3910.000	3.03384	3.64257	-0.05338	2.80485
3911.000	3.17971	3.75680	0.14432	2.80683
3912.000	3.32159	3.79582	0.25108	2.85246
3913.000	3.49889	3.84059	0.34202	2.84251
3914.000	3.56586	3.88380	0.36376	2.91989
3915.000	3.59146	3.86788	0.42900	2.84248
3916.000	3.59540	3.85403	0.43296	2.81271
3917.000	3.57767	3.80666	0.39144	2.86829
3918.000	3.55404	3.83246	0.36969	2.86631
3919.000	3.49889	3.78722	0.37167	2.78495
3920.000	3.52450	3.76734	0.26294	2.76910
3921.000	3.53631	3.77323	0.25701	2.71551
3922.000	3.55798	3.78105	0.22142	2.74926
3923.000	3.48511	3.80902	0.18979	2.71354
3924.000	3.49101	3.77539	0.17595	2.66391
3925.000	3.47526	3.72008	0.16804	2.72346
3926.000	3.46935	3.74186	0.18979	2.73537
3927.000	3.48511	3.73586	0.11269	2.71553
3928.000	3.48511	3.79123	0.15223	2.82270
3929.000	3.41419	3.76778	0.17002	2.74530
3930.000	3.43783	3.78944	0.21154	2.79689
3931.000	3.39646	3.79949	0.19375	2.70758
3932.000	3.39646	3.79751	0.15421	2.72148
3933.000	3.41025	3.80734	0.17002	2.71354
3934.000	3.37479	3.75211	0.20956	2.72941
3935.000	3.39449	3.82915	0.24712	2.75918
3936.000	3.35115	3.74825	0.19968	2.77110
3937.000	3.38464	3.81337	0.20956	2.70758
3938.000	3.38267	3.76593	0.21549	2.79094
3939.000	3.37873	3.79362	0.21352	2.74331
3940.000	3.41616	3.78161	0.29457	2.75718
3941.000	3.45753	3.78738	0.24515	2.74925
3942.000	3.42995	3.77958	0.22933	2.73139
3943.000	3.47526	3.76556	0.26689	2.72940
3944.000	3.47132	3.78140	0.25108	2.75719
3945.000	3.48117	3.76158	0.25899	2.74528
3946.000	3.53828	3.78903	0.21154	2.76117
3947.000	3.45950	3.81703	0.25305	2.77704
3948.000	3.52844	3.76733	0.29655	2.76115
3949.000	3.47526	3.79324	0.24712	2.74131
3950.000	3.51662	3.78517	0.20758	2.78499
3951.000	3.51268	3.81286	0.21747	2.79689
3952.000	3.49101	3.81493	0.29852	2.78298
3953.000	3.47526	3.81301	0.26294	2.86833
3954.000	3.49298	3.83469	0.23724	2.77704
3955.000	3.44571	3.83488	0.25701	2.82864
3956.000	3.48117	3.78136	0.26689	2.82268
3957.000	3.52450	3.78711	0.22538	2.86040
3958.000	3.50086	3.76941	0.27876	2.77902
3959.000	3.50677	3.78521	0.23131	2.86040
3960.000	3.51268	3.72191	0.21549	2.84849
3961.000	3.50086	3.74569	0.19770	2.78102
3962.000	3.46738	3.75571	0.18781	2.73934
3963.000	3.50086	3.80896	0.22538	2.79888
3964.000	3.48314	3.75564	0.22933	2.76712
3965.000	3.45950	3.72608	0.24119	2.72345
3966.000	3.47329	3.71020	0.24910	2.79490
3967.000	3.42601	3.75587	0.23526	2.82071
3968.000	3.43586	3.75979	0.22933	2.86834
3969.000	3.43783	3.68463	0.17398	2.80484
3970.000	3.43980	3.72616	0.25503	2.80086
3971.000	3.41813	3.75392	0.24119	2.83460
3972.000	3.46147	3.71816	0.24712	2.76513
3973.000	3.44374	3.71032	0.26492	2.79291
3974.000	3.47920	3.72402	0.24515	2.78300
3975.000	3.42798	3.73213	0.21549	2.78896
3976.000	3.41222	3.72428	0.21747	2.78697
3977.000	3.44965	3.75775	0.23526	2.76513
3978.000	3.46935	3.77547	0.24317	2.78498
3979.000	3.41025	3.69265	0.22340	2.79888
3980.000	3.42010	3.76578	0.19968	2.76911
3981.000	3.40237	3.81330	0.26096	2.81872
3982.000	3.43586	3.67673	0.24712	2.83261
3983.000	3.41222	3.67880	0.23724	2.85444
3984.000	3.46147	3.75178	0.25305	2.78696
3985.000	3.47723	3.75962	0.24712	2.78696
3986.000	3.46541	3.74385	0.24910	2.78101
3987.000	3.44571	3.69845	0.22142	2.78697
3988.000	3.44768	3.76172	0.26492	2.82665
3989.000	3.42995	3.67478	0.18979	2.79094
3990.000	3.49101	3.69432	0.21549	2.81873
3991.000	3.41616	3.68867	0.24712	2.78498
3992.000	3.53435	3.80487	0.27678	2.79490
3993.000	3.49495	3.73385	0.20956	2.80880
3994.000	3.46344	3.71815	0.19968	2.89017
3995.000	3.47526	3.75765	0.25899	2.89611
3996.000	3.46344	3.69047	0.20363	2.84850
3997.000	3.47723	3.73194	0.21154	2.84056
3998.000	3.47132	3.75569	0.22340	2.88818
3999.000	3.41616	3.78755	0.22735	2.81674
4000.000	3.45162	3.73204	0.15816	2.86636
4001.000	3.49889	3.70813	0.21154	2.89215
4002.000	3.51662	3.79505	0.21154	2.89810
4003.000	3.49298	3.73979	0.16211	2.79492
4004.000	3.44768	3.71030	0.19572	2.85445
4005.000	3.52253	3.76933	0.19572	2.86636
4006.000	3.44374	3.78150	0.18979	2.88620
4007.000	3.45950	3.70235	0.20165	2.81674
4008.000	3.46147	3.71025	0.26492	2.88817
4009.000	3.49495	3.71407	0.16607	2.87232
4010.000	3.47723	3.71612	0.25108	2.91199
4011.000	3.47723	3.79126	0.25701	2.88619
4012.000	3.43192	3.72421	0.21747	2.92390
4013.000	3.44768	3.70042	0.24317	2.91397
4014.000	3.44571	3.74986	0.19968	2.83064
4015.000	3.43389	3.75979	0.22538	2.92787
4016.000	3.49692	3.76943	0.24317	2.97151
4017.000	3.41813	3.71437	0.27282	2.96159
4018.000	3.51465	3.74366	0.25503	2.86833
4019.000	3.49495	3.71012	0.24317	2.90604
4020.000	3.44768	3.71426	0.26492	2.91000
4021.000	3.45162	3.71820	0.21747	2.89215
4022.000	3.48511	3.70027	0.27085	2.87031
4023.000	3.44177	3.71824	0.23131	2.89810
4024.000	3.42798	3.72620	0.20363	2.86834
4025.000	3.44177	3.71626	0.21945	2.86238
4026.000	3.43192	3.71630	0.23724	2.90802
4027.000	3.49692	3.71011	0.22933	2.86238
4028.000	3.40631	3.75397	0.19770	2.83064
4029.000	3.43783	3.71232	0.19572	2.88223
4030.000	3.44374	3.72812	0.24712	2.91397
4031.000	3.44374	3.71427	0.21352	2.87628
4032.000	3.48314	3.69435	0.19572	2.88819
4033.000	3.49101	3.67849	0.22538	2.88223
4034.000	3.44571	3.71031	0.24317	2.87230
4035.000	3.50283	3.71998	0.22933	2.90604
4036.000	3.46541	3.69837	0.25899	2.92588
4037.000	3.46147	3.69048	0.28073	2.89412
4038.000	3.48904	3.69828	0.22933	2.85643
4039.000	3.41616	3.62538	0.24910	2.94969
4040.000	3.47329	3.69241	0.22142	2.88421
4041.000	3.45950	3.63708	0.29062	2.81077
4042.000	3.41813	3.73019	0.21352	2.80880
4043.000	3.45950	3.66873	0.17398	2.88422
4044.000	3.46935	3.65682	0.22933	2.84254
4045.000	3.46344	3.69245	0.22735	2.90009
4046.000	3.43783	3.64706	0.17991	2.86438
4047.000	3.46147	3.73398	0.20165	2.91398
4048.000	3.45556	3.64699	0.24515	2.85047
4049.000	3.42207	3.71831	0.24712	2.80086
4050.000	3.45753	3.65687	0.23922	2.84055
4051.000	3.46935	3.68056	0.19572	2.82468
4052.000	3.43389	3.70443	0.20363	2.84056
4053.000	3.42010	3.67086	0.25503	2.80086
4054.000	3.42995	3.65302	0.26492	2.84451
4055.000	3.44177	3.71033	0.19968	2.88025
4056.000	3.42601	3.62535	0.31236	2.88022
4057.000	3.41616	3.63527	0.22142	2.85841
4058.000	3.44177	3.63715	0.24712	2.98342
4059.000	3.40631	3.70849	0.22538	2.90604
4060.000	3.39252	3.64723	0.21154	2.88025
4061.000	3.44177	3.66880	0.22735	2.85841
4062.000	3.41419	3.72625	0.21747	2.90009
4063.000	3.41025	3.67090	0.26689	2.91992
4064.000	3.44177	3.65693	0.23526	2.91794
4065.000	3.42798	3.63325	0.23724	2.85444
4066.000	3.45359	3.63513	0.23131	2.92787
4067.000	3.44965	3.67866	0.21352	2.90406
4068.000	3.44965	3.63119	0.23329	2.89016
4069.000	3.44965	3.66283	0.24515	2.98739
4070.000	3.44571	3.68065	0.26492	2.88817
4071.000	3.43980	3.65694	0.26294	2.89809
4072.000	3.42404	3.60162	0.28864	2.87031
4073.000	3.41813	3.60164	0.24712	2.92588
4074.000	3.37282	3.55631	0.25701	2.86436
4075.000	3.37676	3.59981	0.21352	2.85246
4076.000	3.40040	3.63929	0.23526	2.87230
4077.000	3.36494	3.63151	0.23131	2.92191
4078.000	3.36691	3.53852	0.25899	2.92191
4079.000	3.41222	3.60364	0.28073	2.90603
4080.000	3.36100	3.63746	0.26887	2.86039
4081.000	3.30977	3.54862	0.21747	2.88818
4082.000	3.31371	3.55059	0.21747	2.84254
4083.000	3.43389	3.56202	0.28271	2.79490
4084.000	3.37479	3.63543	0.21747	2.82269
4085.000	3.35312	3.57814	0.25701	2.83856
4086.000	3.36888	3.59984	0.29655	2.82268
4087.000	3.31568	3.59410	0.24910	2.84452
4088.000	3.31174	3.58027	0.33411	2.84847
4089.000	3.36888	3.56424	0.28666	2.74924
4090.000	3.39843	3.56017	0.30248	2.85046
4091.000	3.36691	3.57216	0.28864	2.81871
4092.000	3.29992	3.52096	0.25899	2.77505
4093.000	3.35903	3.61175	0.28666	2.79489
4094.000	3.32750	3.59406	0.27085	2.81276
4095.000	3.33144	3.58218	0.33411	2.76511
4096.000	3.31371	3.51893	0.26492	2.83261
4097.000	3.34130	3.55840	0.31632	2.81870
4098.000	3.37282	3.55037	0.27480	2.83856
4099.000	3.38661	3.56219	0.26689	2.85444
4100.000	3.37282	3.51278	0.27085	2.78696
4101.000	3.37873	3.47912	0.25899	2.81673
4102.000	3.32159	3.51494	0.24712	2.81673
4103.000	3.34524	3.50101	0.29062	2.79092
4104.000	3.36888	3.52269	0.29062	2.82268
4105.000	3.36297	3.57613	0.29259	2.81871
4106.000	3.36297	3.54447	0.30248	2.78100
4107.000	3.36691	3.54050	0.31039	2.79489
4108.000	3.33933	3.47135	0.35190	2.81472
4109.000	3.33341	3.48918	0.26887	2.84451
4110.000	3.35509	3.51285	0.29259	2.77703
4111.000	3.35509	3.53857	0.32620	2.80481
4112.000	3.33736	3.54457	0.30841	2.86038
4113.000	3.37676	3.47913	0.24317	2.82467
4114.000	3.37085	3.54642	0.29457	2.83260
4115.000	3.34721	3.52672	0.29852	2.86435
4116.000	3.39449	3.57799	0.29062	2.89015
4117.000	3.38070	3.59584	0.31829	2.80679
4118.000	3.37676	3.55827	0.30841	2.87030
4119.000	3.37479	3.56026	0.25701	2.90206
4120.000	3.39449	3.50677	0.30248	2.86832
4121.000	3.36494	3.51875	0.33609	2.83656
4122.000	3.36100	3.59394	0.24515	2.78895
4123.000	3.34524	3.53860	0.30050	2.87824
4124.000	3.35509	3.55242	0.30643	2.84252
4125.000	3.34327	3.51487	0.28469	2.82665
4126.000	3.37282	3.47123	0.26689	2.81475
4127.000	3.42207	3.52843	0.33609	2.84251
4128.000	3.36494	3.54447	0.29062	2.79886
4129.000	3.33538	3.51885	0.31434	2.88419
4130.000	3.31568	3.44571	0.35586	2.82663
4131.000	3.34327	3.56433	0.31236	2.85244
4132.000	3.34918	3.53067	0.31236	2.87824
4133.000	3.40237	3.55620	0.26689	2.83261
4134.000	3.34918	3.47725	0.24712	2.79689
4135.000	3.33341	3.55843	0.32620	2.87625
4136.000	3.33933	3.50301	0.28271	2.83260
4137.000	3.30189	3.43586	0.27876	2.86237
4138.000	3.35903	3.50492	0.26689	2.82864
4139.000	3.32750	3.48128	0.28073	2.81276
4140.000	3.32553	3.48129	0.30446	2.78894
4141.000	3.35903	3.49502	0.29655	2.81275
4142.000	3.29204	3.50318	0.31039	2.80283
4143.000	3.29992	3.50117	0.24515	2.80880
4144.000	3.30386	3.49126	0.29655	2.75718
4145.000	3.33144	3.49116	0.26887	2.79093
4146.000	3.34524	3.46935	0.29655	2.82069
4147.000	3.31962	3.48131	0.32818	2.79885
4148.000	3.29598	3.48931	0.22933	2.79888
4149.000	3.33538	3.44366	0.30050	2.79092
4150.000	3.32750	3.47733	0.25899	2.81673
4151.000	3.31765	3.49517	0.26689	2.85642
4152.000	3.32159	3.49318	0.26887	2.86634
4153.000	3.29795	3.47347	0.28073	2.86832
4154.000	3.29204	3.48735	0.30050	2.87626
4155.000	3.29598	3.43984	0.27480	2.85642
4156.000	3.28612	3.51309	0.23922	2.87826
4157.000	3.35312	3.57221	0.23724	2.87230
4158.000	3.34918	3.57024	0.20165	2.89414
4159.000	3.37676	3.55431	0.24712	2.89810
4160.000	3.36494	3.60579	0.24712	2.87825
4161.000	3.36691	3.58007	0.22142	2.89017
4162.000	3.36297	3.58404	0.19770	2.87231
4163.000	3.34918	3.64146	0.22142	2.89413
4164.000	3.40631	3.62542	0.20561	2.90009
4165.000	3.36100	3.62361	0.20363	2.91993
4166.000	3.35115	3.60980	0.21154	2.90009
4167.000	3.36691	3.59787	0.24712	2.81277
4168.000	3.34524	3.62169	0.22340	2.86635
4169.000	3.37085	3.66511	0.23329	2.86833
4170.000	3.35509	3.59792	0.23724	2.87429
4171.000	3.36888	3.60578	0.20956	2.83262
4172.000	3.41025	3.64914	0.22340	2.84254
4173.000	3.35312	3.56825	0.22933	2.85048
4174.000	3.42010	3.62141	0.24712	2.80284
4175.000	3.32750	3.53273	0.23922	2.78697
4176.000	3.39449	3.65513	0.24317	2.92389
4177.000	3.32159	3.54462	0.29852	2.86038
4178.000	3.38464	3.58594	0.25503	2.86635
4179.000	3.36494	3.61173	0.28864	2.90801
4180.000	3.36888	3.62358	0.23724	2.89413
4181.000	3.42010	3.65504	0.26096	2.87230
4182.000	3.40434	3.58982	0.28073	2.87626
4183.000	3.36494	3.61964	0.29259	2.92785
4184.000	3.41025	3.57991	0.22735	2.88223
4185.000	3.36888	3.60182	0.22340	2.84849
4186.000	3.35509	3.60385	0.25108	2.84452
4187.000	3.33933	3.60984	0.26492	2.85245
4188.000	3.32159	3.60397	0.25108	2.85246
4189.000	3.36494	3.59392	0.23922	2.86436
4190.000	3.39646	3.62348	0.24712	2.88024
4191.000	3.38070	3.56221	0.30446	2.87030
4192.000	3.34524	3.58213	0.27678	2.88817
4193.000	3.34524	3.58410	0.24515	2.87825
4194.000	3.38070	3.57804	0.25305	2.89214
4195.000	3.38070	3.58793	0.27480	2.91000
4196.000	3.33341	3.57426	0.25108	2.81872
4197.000	3.36100	3.54052	0.27085	2.86634
4198.000	3.38661	3.63736	0.26294	2.82070
4199.000	3.36691	3.61568	0.28073	2.81673
4200.000	3.41222	3.60364	0.25503	2.93381
4201.000	3.37282	3.58203	0.25305	2.85841
4202.000	3.37085	3.59192	0.25305	2.90207
4203.000	3.31765	3.59410	0.23526	2.85047
4204.000	3.37282	3.55433	0.23922	2.83658
4205.000	3.33736	3.54852	0.26096	2.83062
4206.000	3.35312	3.57418	0.23922	2.83460
4207.000	3.37873	3.53650	0.24515	2.82864
4208.000	3.37085	3.55038	0.22735	2.83460
4209.000	3.39843	3.58589	0.27678	2.85443
4210.000	3.34130	3.57027	0.24119	2.81872
4211.000	3.34918	3.59398	0.21352	2.80086
4212.000	3.35115	3.60980	0.24119	2.88818
4213.000	3.32947	3.58812	0.28469	2.86832
4214.000	3.37676	3.54640	0.25305	2.84452
4215.000	3.36100	3.59987	0.30446	2.84450
4216.000	3.38267	3.60573	0.25899	2.87031
4217.000	3.36691	3.58007	0.26689	2.86634
4218.000	3.38070	3.66705	0.23922	2.84254
4219.000	3.32750	3.60395	0.28469	2.87031
4220.000	3.33538	3.60788	0.23131	2.87230
4221.000	3.35115	3.56628	0.23131	2.87429
4222.000	3.34327	3.57026	0.23329	2.87429
4223.000	3.32356	3.52879	0.26492	2.87627
4224.000	3.30780	3.51697	0.28073	2.86436
4225.000	3.39252	3.55624	0.28271	2.90801
4226.000	3.29992	3.59614	0.27282	2.83856
4227.000	3.34130	3.59203	0.23329	2.94175
4228.000	3.32750	3.58417	0.25899	2.88420
4229.000	3.29401	3.55066	0.28271	2.92984
4230.000	3.32356	3.54659	0.23724	2.87826
4231.000	3.30780	3.58622	0.28666	2.83856
4232.000	3.34327	3.56235	0.25305	2.87032
4233.000	3.31765	3.58420	0.20363	2.85246
4234.000	3.29204	3.51109	0.24119	2.91993
4235.000	3.33144	3.54459	0.31039	2.90602
4236.000	3.26051	3.53297	0.25108	2.87230
4237.000	3.30386	3.55260	0.24317	2.89016
4238.000	3.30977	3.56049	0.27282	2.83657
4239.000	3.32947	3.54064	0.21352	2.83460
4240.000	3.32750	3.50305	0.22142	2.86834
4241.000	3.27430	3.56260	0.22933	2.89016
4242.000	3.31568	3.55651	0.23526	2.88024
4243.000	3.27233	3.45971	0.23922	2.80483
4244.000	3.35312	3.55638	0.18584	2.87628
4245.000	3.34918	3.56826	0.22538	2.87032
4246.000	3.35312	3.55044	0.20956	2.88223
4247.000	3.26445	3.54285	0.22538	2.87627
4248.000	3.25657	3.57057	0.21549	2.84056
4249.000	3.31568	3.55058	0.27085	2.85840
4250.000	3.25460	3.53892	0.24712	2.84452
4251.000	3.26248	3.48943	0.24910	2.83658
4252.000	3.28021	3.49134	0.23131	2.86238
4253.000	3.25657	3.51121	0.21549	2.80483
4254.000	3.29204	3.51307	0.22735	2.80880
4255.000	3.28218	3.50717	0.23131	2.84849
4256.000	3.24671	3.54291	0.17793	2.84255
4257.000	3.30583	3.51896	0.22142	2.83659
4258.000	3.26642	3.53690	0.21945	2.82666
4259.000	3.28218	3.52893	0.19177	2.82865
4260.000	3.30189	3.58228	0.22142	2.90207
4261.000	3.30977	3.45562	0.20363	2.85842
4262.000	3.29795	3.50513	0.19770	2.86437
4263.000	3.29598	3.56846	0.19572	2.86834
4264.000	3.31962	3.52089	0.22538	2.85643
4265.000	3.28021	3.51905	0.24515	2.86436
4266.000	3.29795	3.53481	0.18386	2.89017
4267.000	3.30977	3.47937	0.23922	2.86635
4268.000	3.31765	3.53474	0.25701	2.86039
4269.000	3.27627	3.51708	0.21747	2.84849
4270.000	3.26248	3.54879	0.30643	2.82267
4271.000	3.32159	3.50703	0.28864	2.85245
4272.000	3.27824	3.50520	0.21747	2.83262
4273.000	3.30780	3.55259	0.22735	2.84651
4274.000	3.28021	3.48541	0.23922	2.86833
4275.000	3.30780	3.55852	0.23131	2.89016
4276.000	3.29598	3.55263	0.23131	2.87032
4277.000	3.28612	3.54871	0.19968	2.87033
4278.000	3.25263	3.53102	0.19770	2.85247
4279.000	3.27233	3.62987	0.22142	2.86238
4280.000	3.25065	3.59236	0.22142	2.85841
4281.000	3.28810	3.53683	0.24119	2.87032
4282.000	3.26839	3.56064	0.24317	2.84055
4283.000	3.28021	3.50915	0.23526	2.90802
4284.000	3.27233	3.55073	0.22142	2.84452
4285.000	3.27036	3.51710	0.20363	2.91001
4286.000	3.26051	3.53495	0.24910	2.87032
4287.000	3.25854	3.52308	0.23131	2.89413
4288.000	3.27036	3.56261	0.19177	2.93184
4289.000	3.25460	3.56069	0.17398	2.87430
4290.000	3.32159	3.56836	0.21549	2.85643
4291.000	3.30189	3.60800	0.23526	2.82269
4292.000	3.26248	3.57253	0.24515	2.81475
4293.000	3.33144	3.53865	0.29655	2.90404
4294.000	3.27430	3.57051	0.24119	2.87627
4295.000	3.29401	3.60407	0.25701	2.93976
4296.000	3.32159	3.55056	0.25701	2.90603
4297.000	3.29401	3.58429	0.24119	2.92588
4298.000	3.26445	3.66748	0.27282	2.92786
4299.000	3.31765	3.62773	0.30643	2.92586
4300.000	3.30583	3.66733	0.33411	2.87625
4301.000	3.34721	3.63553	0.27678	2.87825
4302.000	3.25657	3.64971	0.23922	2.97747
4303.000	3.28218	3.60412	0.23724	2.89612
4304.000	3.29598	3.67132	0.28864	2.92388
4305.000	3.25657	3.62201	0.27480	2.93381
4306.000	3.24277	3.65569	0.29457	2.92983
4307.000	3.34524	3.63356	0.27678	2.96754
4308.000	3.24080	3.68735	0.29655	2.94968
4309.000	3.26839	3.65560	0.30446	3.00721
4310.000	3.28218	3.67731	0.32225	2.99133
4311.000	3.28218	3.68126	0.26689	3.00920
4312.000	3.32356	3.68704	0.23922	3.02310
4313.000	3.30583	3.65546	0.25503	3.05880
4314.000	3.30780	3.67326	0.16607	3.01319
4315.000	3.30189	3.67724	0.21747	3.00326
4316.000	3.36297	3.75216	0.20758	3.01319
4317.000	3.26248	3.74463	0.26887	3.03301
4318.000	3.28810	3.72278	0.20956	3.05881
4319.000	3.31962	3.68706	0.19572	3.08262
4320.000	3.36494	3.77193	0.21154	3.13221
4321.000	3.35312	3.77395	0.17595	3.17982
4322.000	3.34918	3.75221	0.15223	3.20758
4323.000	3.37676	3.74815	0.11862	3.22345
4324.000	3.43980	3.73604	0.02570	3.23139
4325.000	3.41419	3.73614	0.01186	3.25122
4326.000	3.44965	3.77950	0.04349	3.32856
4327.000	3.46738	3.84468	0.00395	3.45742
4328.000	3.43980	3.95746	-0.06722	3.40588
4329.000	3.47526	4.05216	-0.08106	3.51489
4330.000	3.51859	3.96108	-0.10676	3.48120
4331.000	3.78243	3.00071	-0.20758	3.45938
4332.000	3.85919	3.52870	-0.27678	3.70706
4333.000	3.84148	4.71553	-0.25701	4.54225
4334.000	3.87887	6.40225	-0.32620	5.66125
4335.000	3.84935	8.28257	-0.51598	7.18740
4336.000	3.78243	10.31485	-0.72354	8.89550
4337.000	3.64659	12.33571	-1.11094	10.57735
4338.000	NaN	NaN	-1.59305	12.31359
4339.000	NaN	NaN	-6.60540	13.42435
4340.000	NaN	NaN	-7.85254	14.55413
4341.000	NaN	NaN	NaN	NaN
4342.000	NaN	NaN	NaN	NaN
4343.000	NaN	NaN	NaN	NaN
4344.000	NaN	NaN	NaN	NaN
4345.000	NaN	NaN	NaN	NaN
4346.000	NaN	NaN	NaN	NaN
4347.000	NaN	NaN	NaN	NaN
4348.000	NaN	NaN	NaN	NaN
4349.000	NaN	NaN	NaN	NaN
4350.000	NaN	NaN	NaN	NaN
4351.000	NaN	NaN	NaN	NaN
4352.000	NaN	NaN	NaN	NaN
4353.000	NaN	NaN	NaN	NaN
4354.000	NaN	NaN	NaN	NaN
4355.000	NaN	NaN	NaN	NaN
4356.000	NaN	NaN	NaN	NaN
4357.000	NaN	NaN	NaN	NaN
4358.000	NaN	NaN	NaN	NaN
4359.000	NaN	NaN	NaN	NaN
4360.000	NaN	NaN	NaN	NaN
4361.000	NaN	NaN	NaN	NaN
4362.000	NaN	NaN	NaN	NaN
4363.000	NaN	NaN	NaN	NaN
4364.000	NaN	NaN	NaN	NaN
4365.000	NaN	NaN	NaN	NaN
4366.000	NaN	NaN	NaN	NaN
4367.000	NaN	NaN	NaN	NaN
4368.000	NaN	NaN	NaN	NaN
4369.000	NaN	NaN	NaN	NaN
4370.000	NaN	NaN	NaN	NaN
4371.000	NaN	NaN	NaN	NaN
4372.000	NaN	NaN	NaN	NaN
4373.000	NaN	NaN	NaN	NaN
4374.000	NaN	NaN	NaN	NaN
4375.000	NaN	NaN	NaN	NaN
4376.000	NaN	NaN	NaN	NaN
4377.000	NaN	NaN	NaN	NaN
4378.000	NaN	NaN	NaN	NaN
4379.000	NaN	NaN	NaN	NaN
4380.000	NaN	NaN	NaN	NaN
4381.000	NaN	NaN	NaN	NaN
4382.000	NaN	NaN	NaN	NaN
4383.000	NaN	NaN	NaN	NaN
4384.000	NaN	NaN	NaN	NaN
4385.000	NaN	NaN	NaN	NaN
4386.000	NaN	NaN	NaN	NaN
4387.000	NaN	NaN	NaN	NaN
4388.000	NaN	NaN	NaN	NaN
4389.000	NaN	NaN	NaN	NaN
4390.000	NaN	NaN	NaN	NaN
4391.000	NaN	NaN	NaN	NaN
4392.000	NaN	NaN	NaN	NaN
4393.000	NaN	NaN	NaN	NaN
4394.000	NaN	NaN	NaN	NaN
4395.000	NaN	NaN	NaN	NaN
4396.000	NaN	NaN	NaN	NaN
4397.000	NaN	NaN	NaN	NaN
4398.000	NaN	NaN	NaN	NaN
4399.000	NaN	NaN	NaN	NaN
4400.000	NaN	NaN	NaN	NaN
4401.000	NaN	NaN	NaN	NaN
4402.000	NaN	NaN	NaN	NaN
4403.000	NaN	NaN	NaN	NaN
4404.000	NaN	NaN	NaN	NaN
4405.000	NaN	NaN	NaN	NaN
4406.000	NaN	NaN	NaN	NaN
4407.000	NaN	NaN	NaN	NaN
4408.000	NaN	NaN	NaN	NaN
4409.000	NaN	NaN	NaN	NaN
4410.000	NaN	NaN	NaN	NaN
4411.000	NaN	NaN	NaN	NaN
4412.000	NaN	NaN	NaN	NaN
4413.000	NaN	NaN	NaN	NaN
4414.000	NaN	NaN	NaN	NaN
4415.000	NaN	NaN	NaN	NaN
4416.000	NaN	NaN	NaN	NaN
4417.000	NaN	NaN	NaN	NaN
4418.000	NaN	NaN	NaN	NaN
4419.000	NaN	NaN	NaN	NaN
4420.000	NaN	NaN	NaN	NaN
4421.000	NaN	NaN	NaN	NaN
4422.000	NaN	NaN	NaN	NaN
4423.000	NaN	NaN	NaN	NaN
4424.000	NaN	NaN	NaN	NaN
4425.000	NaN	NaN	NaN	NaN
4426.000	NaN	NaN	NaN	NaN
4427.000	NaN	NaN	NaN	NaN
4428.000	NaN	NaN	NaN	NaN
4429.000	NaN	NaN	NaN	NaN
4430.000	NaN	NaN	NaN	NaN
4431.000	NaN	NaN	NaN	NaN
4432.000	NaN	NaN	NaN	NaN
4433.000	NaN	NaN	NaN	NaN
4434.000	NaN	NaN	NaN	NaN
4435.000	NaN	NaN	NaN	NaN
4436.000	NaN	NaN	NaN	NaN
4437.000	NaN	NaN	NaN	NaN
4438.000	NaN	NaN	NaN	NaN
4439.000	NaN	NaN	NaN	NaN
4440.000	NaN	NaN	NaN	NaN
4441.000	NaN	NaN	NaN	NaN
4442.000	NaN	NaN	NaN	NaN
4443.000	NaN	NaN	NaN	NaN
4444.000	NaN	NaN	NaN	NaN
4445.000	NaN	NaN	NaN	NaN
4446.000	NaN	NaN	NaN	NaN
4447.000	NaN	NaN	NaN	NaN
4448.000	NaN	NaN	NaN	NaN
4449.000	NaN	NaN	NaN	NaN
4450.000	NaN	NaN	NaN	NaN
4451.000	NaN	NaN	NaN	NaN
4452.000	NaN	NaN	NaN	NaN
4453.000	NaN	NaN	NaN	NaN
4454.000	NaN	NaN	NaN	NaN
4455.000	NaN	NaN	NaN	NaN
4456.000	NaN	NaN	NaN	NaN
4457.000	NaN	NaN	NaN	NaN
4458.000	NaN	NaN	-3.25065	13.61561
4459.000	NaN	NaN	-2.01769	12.79762
4460.000	NaN	NaN	-0.78284	11.62416
4461.000	NaN	NaN	-0.81052	10.99288
4462.000	NaN	NaN	-0.83424	10.48590
4463.000	3.21321	11.83024	-0.80656	9.91370
4464.000	4.45114	12.98848	-0.72157	9.42868
4465.000	5.75343	13.68836	-0.83226	8.89139
4466.000	5.58311	13.10016	-0.79866	8.40345
4467.000	5.54394	12.50035	-0.84017	7.83410
4468.000	5.45971	11.97626	-0.77098	7.33581
4469.000	5.20100	11.44548	-0.75122	6.87357
4470.000	5.18531	10.96533	-0.74331	6.43397
4471.000	5.05979	10.39335	-0.71366	6.06642
4472.000	4.84002	9.93002	-0.69982	5.61758
4473.000	4.73400	9.33799	-0.67610	5.24303
4474.000	4.61617	8.84069	-0.66424	4.80481
4475.000	4.50223	8.31268	-0.55354	4.49266
4476.000	4.34698	7.80099	-0.52191	4.21775
4477.000	4.20346	7.37745	-0.45865	3.94465
4478.000	4.08349	6.86860	-0.51203	3.72083
4479.000	3.87494	6.51006	-0.48633	3.52864
4480.000	3.76865	6.13434	-0.46656	3.18766
4481.000	3.63478	5.67559	-0.42109	2.95162
4482.000	3.47329	5.30273	-0.43889	2.75714
4483.000	3.35706	4.94086	-0.44284	2.52289
4484.000	3.21715	4.55490	-0.46459	2.41963
4485.000	3.15803	4.24118	-0.41912	2.21110
4486.000	3.07918	3.93119	-0.41714	2.08594
4487.000	3.07129	3.67410	-0.40330	1.86539
4488.000	3.00821	3.48631	-0.38156	1.76006
4489.000	2.97666	3.16366	-0.35190	1.65273
4490.000	2.91159	3.01527	-0.37167	1.57123
4491.000	2.87215	2.68834	-0.35190	1.53346
4492.000	2.87610	2.52177	-0.30446	1.51359
4493.000	2.92342	2.41259	-0.29852	1.59112
4494.000	2.89187	2.30357	-0.29259	1.58714
4495.000	2.83863	2.31954	-0.32818	1.80379
4496.000	2.90765	2.14879	-0.25899	1.96080
4497.000	2.90765	2.24799	-0.34004	2.11377
4498.000	2.84060	2.34334	-0.33411	2.23297
4499.000	2.86032	2.38297	-0.35981	2.27467
4500.000	2.85046	2.63882	-0.35981	2.30050
4501.000	2.79524	2.83720	-0.34004	2.32036
4502.000	2.77354	3.01959	-0.37563	2.31042
4503.000	2.73015	3.13264	-0.40726	2.33226
4504.000	2.76171	3.16624	-0.36574	2.28262
4505.000	2.74396	3.26929	-0.36179	2.27865
4506.000	2.79721	3.18793	-0.37167	2.28659
4507.000	2.73804	3.16828	-0.41121	2.25083
4508.000	2.74790	3.19401	-0.37167	2.30248
4509.000	2.75579	3.21578	-0.38551	2.25878
4510.000	2.72620	3.22973	-0.39737	2.32035
4511.000	2.75185	3.17419	-0.40133	2.29055
4512.000	2.74987	3.22966	-0.39342	2.34815
4513.000	2.74396	3.19996	-0.44284	2.31835
4514.000	2.74396	3.22572	-0.40726	2.31836
4515.000	2.73409	3.17622	-0.42900	2.29055
4516.000	2.73212	3.20396	-0.42307	2.35410
4517.000	2.74396	3.20987	-0.41319	2.35212
4518.000	2.73804	3.14055	-0.41912	2.29254
4519.000	2.73804	3.16828	-0.41912	2.31240
4520.000	2.74593	3.18213	-0.43098	2.29849
4521.000	2.69464	3.13670	-0.40923	2.38787
4522.000	2.73212	3.14651	-0.43493	2.35013
4523.000	2.69662	3.15056	-0.41714	2.34616
4524.000	2.67689	3.13872	-0.44482	2.36204
4525.000	2.75776	3.15238	-0.44284	2.31636
4526.000	2.76763	3.20386	-0.45272	2.37395
