time (ms)	lx (deg)	ly (deg)	rx (deg)	ry (deg)
0.000	2.04138	2.39832	-0.12653	1.40823
1.000	1.98807	2.42817	-0.08303	1.49373
2.000	2.00979	2.45791	-0.13048	1.42613
3.000	1.94462	2.42228	-0.07908	1.48180
4.000	1.98214	2.44009	-0.08106	1.46391
5.000	2.01571	2.42218	-0.08303	1.46391
6.000	1.98412	2.41429	-0.09885	1.42016
7.000	2.04533	2.45190	-0.09687	1.46390
8.000	1.99004	2.41031	-0.06920	1.47385
9.000	1.99004	2.40237	-0.04943	1.45397
10.000	1.99794	2.41824	-0.13246	1.48180
11.000	1.99202	2.39840	-0.10083	1.45794
12.000	1.98609	2.38054	-0.11269	1.50367
13.000	1.99991	2.44006	-0.08699	1.46589
14.000	1.96635	2.42424	-0.12257	1.47981
15.000	1.95647	2.43616	-0.06524	1.47583
16.000	1.97227	2.35674	-0.09292	1.52951
17.000	1.95647	2.39051	-0.11269	1.53349
18.000	2.00386	2.41426	-0.05536	1.50764
19.000	1.97622	2.41827	-0.10083	1.60108
20.000	1.99399	2.39839	-0.09490	1.53945
21.000	1.96635	2.42424	-0.09687	1.58915
22.000	1.97227	2.39843	-0.12850	1.52355
23.000	1.97424	2.44804	-0.07513	1.63487
24.000	2.01176	2.39440	-0.09885	1.60704
25.000	2.00781	2.37059	-0.09490	1.57523
26.000	2.00781	2.43013	-0.08303	1.54740
27.000	1.99399	2.39442	-0.11071	1.57921
28.000	1.98412	2.41032	-0.12060	1.56728
29.000	1.96240	2.40638	-0.07513	1.60903
30.000	1.99399	2.43610	-0.12850	1.66270
31.000	1.98807	2.40237	-0.08699	1.61102
32.000	1.98412	2.43810	-0.12060	1.57126
33.000	1.98214	2.36665	-0.12060	1.52355
34.000	1.99004	2.42817	-0.12257	1.55535
35.000	2.02361	2.41820	-0.12060	1.54740
36.000	2.02756	2.37850	-0.11862	1.60108
37.000	2.00584	2.41227	-0.11664	1.52752
38.000	2.04138	2.41619	-0.09490	1.60307
39.000	2.00189	2.39441	-0.12455	1.52156
40.000	1.99794	2.38648	-0.13641	1.52553
41.000	1.98214	2.38650	-0.10676	1.47583
42.000	1.98017	2.38452	-0.09094	1.49770
43.000	2.01571	2.40630	-0.11467	1.50565
44.000	1.98017	2.36666	-0.10280	1.48379
45.000	1.98609	2.43016	-0.14630	1.52553
46.000	2.02756	2.45788	-0.18781	1.53746
47.000	1.94265	2.39450	-0.17200	1.50167
48.000	1.96832	2.41629	-0.17991	1.48975
49.000	1.97424	2.42422	-0.14432	1.48180
50.000	1.96240	2.43020	-0.12850	1.48378
51.000	1.97622	2.39644	-0.20956	1.43209
52.000	1.99794	2.41427	-0.15618	1.44402
53.000	1.95252	2.40838	-0.18979	1.49173
54.000	1.94660	2.42030	-0.19177	1.46390
55.000	1.97227	2.37064	-0.19770	1.48179
56.000	1.94265	2.42030	-0.18386	1.52951
57.000	1.98214	2.44207	-0.16804	1.47185
58.000	1.96832	2.41232	-0.18584	1.42016
59.000	1.97424	2.37857	-0.18781	1.51161
60.000	1.95647	2.40242	-0.19572	1.50565
61.000	1.89723	2.40250	-0.17200	1.49571
62.000	1.94857	2.38258	-0.17002	1.44004
63.000	1.92290	2.37666	-0.19572	1.45595
64.000	1.93278	2.38856	-0.17793	1.45197
65.000	1.94857	2.41434	-0.17002	1.46788
66.000	1.89130	2.35884	-0.17793	1.44799
67.000	1.93475	2.36871	-0.14827	1.42414
68.000	1.88341	2.38267	-0.16409	1.39829
69.000	1.95252	2.38059	-0.16804	1.43607
70.000	1.87156	2.36681	-0.15223	1.42414
71.000	1.91500	2.36278	-0.14037	1.50764
72.000	1.91698	2.33499	-0.15618	1.46589
73.000	1.90315	2.36478	-0.15025	1.47185
74.000	1.91698	2.42629	-0.15816	1.47185
75.000	1.89525	2.40449	-0.16804	1.47185
76.000	1.92685	2.40841	-0.16804	1.45992
77.000	1.89130	2.38465	-0.13839	1.47782
78.000	1.92685	2.37864	-0.18386	1.51360
79.000	1.91303	2.41240	-0.22735	1.50763
80.000	1.89723	2.38265	-0.17200	1.54541
81.000	1.86366	2.38270	-0.17002	1.55336
82.000	1.88933	2.41442	-0.14630	1.48378
83.000	1.95252	2.38853	-0.18386	1.43805
84.000	1.89130	2.38862	-0.18386	1.51559
85.000	1.90908	2.41042	-0.14432	1.48378
86.000	1.93080	2.39253	-0.15618	1.48378
87.000	1.90710	2.35882	-0.18386	1.51559
88.000	1.90513	2.37867	-0.17002	1.47981
89.000	1.90710	2.34492	-0.19968	1.46787
90.000	1.92488	2.36475	-0.20758	1.53944
91.000	1.87551	2.38070	-0.15816	1.48975
92.000	1.94660	2.38060	-0.19177	1.53547
93.000	1.92883	2.33894	-0.19375	1.44601
94.000	1.93870	2.35878	-0.17398	1.49969
95.000	1.86761	2.39659	-0.19770	1.45992
96.000	1.91105	2.42432	-0.21154	1.42612
97.000	1.92093	2.35682	-0.20165	1.40028
98.000	1.90710	2.31316	-0.23526	1.45793
99.000	1.91698	2.37866	-0.17398	1.47384
100.000	1.93672	2.34687	-0.18781	1.47782
101.000	1.92685	2.35482	-0.19572	1.42811
102.000	1.91303	2.37072	-0.20956	1.42612
103.000	1.91895	2.36476	-0.17200	1.49770
104.000	1.92093	2.37468	-0.18584	1.46390
105.000	1.92093	2.37270	-0.19375	1.42612
106.000	1.89130	2.36480	-0.19375	1.50366
107.000	1.88341	2.35290	-0.22340	1.46390
108.000	1.94265	2.40244	-0.19572	1.43606
109.000	1.92685	2.37269	-0.24317	1.45196
110.000	1.91895	2.37270	-0.17991	1.44402
111.000	1.89130	2.38862	-0.20363	1.46390
112.000	1.87353	2.34100	-0.18584	1.42215
113.000	1.92093	2.37468	-0.18188	1.41022
114.000	1.92290	2.32307	-0.21945	1.44799
115.000	1.91105	2.32904	-0.19770	1.44203
116.000	1.93475	2.33099	-0.22735	1.46390
117.000	1.90908	2.30919	-0.22340	1.41618
118.000	1.92290	2.37865	-0.19968	1.47980
119.000	1.95845	2.35478	-0.18781	1.40823
120.000	1.93080	2.29924	-0.18584	1.42016
121.000	1.90710	2.31515	-0.18386	1.43607
122.000	1.93080	2.37665	-0.20956	1.47583
123.000	1.96832	2.39843	-0.21549	1.45992
124.000	1.91500	2.39454	-0.22933	1.43805
125.000	1.92488	2.32505	-0.17991	1.45595
126.000	1.93870	2.34687	-0.27678	1.47781
127.000	1.89328	2.36281	-0.18781	1.54342
128.000	1.93475	2.37863	-0.18188	1.45794
129.000	1.91698	2.36278	-0.16804	1.44402
130.000	1.95252	2.35082	-0.20363	1.49372
131.000	1.94265	2.33495	-0.20758	1.44600
132.000	1.87156	2.30924	-0.20561	1.44799
133.000	1.90710	2.35485	-0.22142	1.45396
134.000	1.93080	2.33100	-0.22340	1.48775
135.000	1.90710	2.39852	-0.22735	1.43805
136.000	1.94660	2.38457	-0.21154	1.51956
137.000	1.90118	2.36677	-0.18979	1.43408
138.000	1.93278	2.38260	-0.20561	1.46390
139.000	1.91303	2.34492	-0.20758	1.46589
140.000	1.87748	2.32313	-0.20561	1.45992
141.000	1.92883	2.34688	-0.20758	1.48577
142.000	1.88933	2.33502	-0.20956	1.42413
143.000	1.94462	2.36671	-0.20363	1.44799
144.000	1.93080	2.37268	-0.17793	1.41817
145.000	1.92685	2.31115	-0.20561	1.42215
146.000	1.98609	2.33886	-0.17595	1.43010
147.000	1.91105	2.33301	-0.25899	1.45395
148.000	1.93080	2.35482	-0.22735	1.49173
149.000	1.95252	2.30318	-0.17595	1.42612
150.000	1.92093	2.32506	-0.20956	1.45197
151.000	1.94857	2.35479	-0.20165	1.43408
152.000	1.93080	2.30122	-0.17002	1.44601
153.000	1.91895	2.28734	-0.21747	1.41419
154.000	1.87946	2.28144	-0.21747	1.38636
155.000	1.93672	2.24960	-0.24119	1.43805
156.000	1.91105	2.34690	-0.25899	1.41419
157.000	1.90710	2.24964	-0.21549	1.37045
158.000	1.86366	2.26558	-0.22142	1.44401
159.000	1.87946	2.26953	-0.22735	1.35852
160.000	1.90710	2.25162	-0.26689	1.43606
161.000	1.91303	2.24367	-0.22340	1.48179
162.000	1.93278	2.32901	-0.23131	1.39630
163.000	1.92488	2.24366	-0.24317	1.46588
164.000	1.91500	2.24169	-0.26294	1.46588
165.000	1.90118	2.25957	-0.19968	1.43408
166.000	1.93080	2.21784	-0.22933	1.42214
167.000	1.89920	2.28935	-0.23526	1.41220
168.000	1.89130	2.25959	-0.23724	1.42413
169.000	1.91500	2.22382	-0.27282	1.47383
170.000	1.91303	2.28338	-0.23329	1.46588
171.000	1.94660	2.22973	-0.21352	1.42215
172.000	1.92883	2.25755	-0.25503	1.43407
173.000	1.90710	2.24765	-0.19177	1.48378
174.000	1.94660	2.25554	-0.23922	1.45197
175.000	1.94462	2.30517	-0.23922	1.48378
176.000	1.94660	2.35083	-0.21352	1.50962
177.000	1.92488	2.25359	-0.21945	1.52553
178.000	1.91895	2.27543	-0.24515	1.49968
179.000	1.97227	2.30911	-0.26096	1.51956
180.000	1.90908	2.32706	-0.20956	1.50565
181.000	1.96240	2.35080	-0.27876	1.56925
182.000	1.98412	2.31306	-0.22142	1.54143
183.000	1.97622	2.30513	-0.24910	1.49173
184.000	1.93672	2.29724	-0.22735	1.50763
185.000	1.93278	2.29328	-0.18584	1.52951
186.000	1.96437	2.26743	-0.19770	1.58517
187.000	1.94462	2.30319	-0.21549	1.56926
188.000	1.99597	2.30312	-0.18584	1.56728
189.000	1.98807	2.25350	-0.16211	1.59511
190.000	1.96437	2.22574	-0.13246	1.58120
191.000	1.98017	2.29123	-0.20561	1.58914
192.000	1.98017	2.25550	-0.15421	1.58716
193.000	1.95647	2.30119	-0.12850	1.58318
194.000	1.94462	2.23172	-0.19375	1.61101
195.000	2.00584	2.28524	-0.15223	1.60903
196.000	1.95647	2.23568	-0.16409	1.55734
197.000	1.95252	2.23370	-0.16014	1.63884
198.000	1.99991	2.26937	-0.14827	1.59511
199.000	2.01571	2.23560	-0.15618	1.61300
200.000	1.97227	2.27933	-0.17200	1.63685
201.000	1.98609	2.27137	-0.15618	1.62095
202.000	2.04730	2.26731	-0.13641	1.63089
203.000	2.04335	2.28717	-0.16014	1.60704
204.000	2.03941	2.31100	-0.18584	1.60703
205.000	2.03151	2.31696	-0.20758	1.65673
206.000	2.01966	2.28323	-0.14432	1.60306
207.000	2.05125	2.31495	-0.18188	1.59312
208.000	2.04335	2.28122	-0.16014	1.58716
209.000	2.04138	2.30305	-0.19770	1.54938
210.000	2.01769	2.23956	-0.21154	1.54541
211.000	2.04533	2.27129	-0.24119	1.60902
212.000	2.00781	2.27928	-0.15618	1.48975
213.000	2.02953	2.33284	-0.16014	1.52752
214.000	2.01176	2.26736	-0.22142	1.57324
215.000	2.02558	2.27131	-0.19968	1.54342
216.000	1.99597	2.30510	-0.21549	1.58715
217.000	1.96832	2.27735	-0.17398	1.57324
218.000	1.98017	2.27336	-0.14037	1.55336
219.000	2.02953	2.32093	-0.20758	1.57125
220.000	1.97424	2.31903	-0.23526	1.58914
221.000	2.04138	2.31695	-0.22735	1.59510
222.000	1.98609	2.31306	-0.24317	1.54739
223.000	1.99202	2.27136	-0.20561	1.54740
224.000	1.98017	2.36070	-0.21747	1.57324
225.000	2.00979	2.33486	-0.20758	1.52752
226.000	2.00584	2.32494	-0.25701	1.52353
227.000	1.96240	2.30713	-0.23131	1.54739
228.000	1.99794	2.35869	-0.27678	1.50564
229.000	2.00386	2.33685	-0.22142	1.48577
230.000	2.00781	2.30509	-0.26096	1.52950
231.000	2.01769	2.33882	-0.25701	1.53944
232.000	2.00584	2.35868	-0.22538	1.54342
233.000	1.98214	2.31505	-0.27282	1.53148
234.000	1.98017	2.38055	-0.20758	1.54342
235.000	2.00781	2.41624	-0.23131	1.56727
236.000	1.96240	2.42424	-0.27480	1.53148
237.000	1.96240	2.34485	-0.22933	1.55137
238.000	2.00584	2.40433	-0.21154	1.53547
239.000	1.98807	2.36268	-0.19770	1.58517
240.000	2.01571	2.41424	-0.22933	1.53745
241.000	2.00189	2.37258	-0.18188	1.49173
242.000	2.02953	2.38048	-0.25108	1.58516
243.000	2.01176	2.41425	-0.24515	1.58119
244.000	1.98017	2.37063	-0.25503	1.60305
245.000	1.98017	2.42620	-0.22933	1.56131
246.000	2.00189	2.39044	-0.25108	1.57125
247.000	2.05323	2.39235	-0.23724	1.50366
248.000	1.97622	2.41827	-0.23922	1.52751
249.000	2.02558	2.39239	-0.22538	1.55535
250.000	2.03348	2.43009	-0.27282	1.52552
251.000	2.01571	2.37058	-0.29655	1.53744
252.000	2.03941	2.41222	-0.24515	1.51757
253.000	2.04335	2.38443	-0.28469	1.48973
254.000	2.06310	2.39035	-0.24515	1.52751
255.000	2.04138	2.37252	-0.28271	1.53148
256.000	2.02756	2.38445	-0.26887	1.53745
257.000	2.04730	2.35068	-0.23329	1.46986
258.000	2.02953	2.31498	-0.26096	1.50763
259.000	2.04730	2.41221	-0.25899	1.50564
260.000	2.05125	2.33480	-0.26492	1.55136
261.000	2.08482	2.37246	-0.22340	1.44998
262.000	2.09469	2.39626	-0.26294	1.43208
263.000	2.06902	2.41416	-0.24317	1.50167
264.000	2.08877	2.38833	-0.24119	1.49173
265.000	2.07889	2.35063	-0.23131	1.41419
266.000	2.08877	2.39627	-0.26294	1.46787
267.000	2.08877	2.40619	-0.24515	1.50167
268.000	2.08087	2.38239	-0.24515	1.46588
269.000	2.10061	2.44785	-0.27282	1.49570
270.000	2.06310	2.38440	-0.30446	1.48973
271.000	2.02163	2.40232	-0.27085	1.49371
272.000	2.04335	2.41420	-0.24317	1.47383
273.000	2.04730	2.41221	-0.21747	1.48974
274.000	2.06112	2.41616	-0.28469	1.49371
275.000	2.03941	2.39833	-0.28271	1.46985
276.000	2.05520	2.37449	-0.24910	1.44799
277.000	2.05915	2.40227	-0.22735	1.41817
278.000	2.08679	2.43398	-0.28271	1.44600
279.000	2.08087	2.38040	-0.28469	1.43009
280.000	2.06507	2.40027	-0.22735	1.44401
281.000	2.09271	2.38237	-0.24317	1.45196
282.000	2.07692	2.35064	-0.25503	1.39033
283.000	2.05520	2.34869	-0.26492	1.44401
284.000	2.04335	2.37450	-0.27678	1.44202
285.000	2.07889	2.33277	-0.29655	1.44003
286.000	2.04928	2.38839	-0.25899	1.46986
287.000	2.09469	2.33473	-0.28073	1.37840
288.000	2.11246	2.39226	-0.24712	1.40425
289.000	2.09469	2.38038	-0.24910	1.45594
290.000	2.10259	2.40419	-0.31039	1.45394
291.000	2.08087	2.38636	-0.28864	1.46588
292.000	2.09271	2.36054	-0.28469	1.47383
293.000	2.06705	2.39035	-0.30446	1.46190
294.000	2.07297	2.46377	-0.28271	1.39231
295.000	2.04730	2.39633	-0.34202	1.43605
296.000	1.97819	2.36269	-0.38551	1.31476
297.000	1.87748	2.26953	-0.41912	1.33066
298.000	1.85971	2.23580	-0.49622	1.19742
299.000	1.75700	2.09693	-0.53180	1.16361
300.000	1.69380	2.00962	-0.68006	1.14369
301.000	1.58120	1.91439	-0.68401	1.13773
302.000	1.51206	1.80320	-0.72354	0.95079
303.000	1.47847	1.78534	-0.76901	0.95674
304.000	1.45081	1.66416	-0.82040	0.83940
305.000	1.38363	1.64036	-0.77098	0.66438
306.000	1.33226	1.48736	-0.86784	0.69619
307.000	1.30657	1.48141	-0.81842	0.72006
308.000	1.29669	1.55893	-0.86191	0.71807
309.000	1.32040	1.56091	-0.84807	0.70415
310.000	1.34807	1.56288	-0.86191	0.75387
311.000	1.38363	1.53304	-0.84017	0.87121
312.000	1.46464	1.66216	-0.82633	0.83741
313.000	1.39746	1.63836	-0.82435	0.95275
314.000	1.42710	1.66020	-0.82435	0.94281
315.000	1.45081	1.71185	-0.84412	0.98656
316.000	1.46069	1.74363	-0.83424	0.96269
317.000	1.48045	1.73567	-0.82633	1.03031
318.000	1.51206	1.75750	-0.78877	0.97066
319.000	1.49823	1.81513	-0.84214	0.93087
320.000	1.51798	1.79723	-0.84610	0.98059
321.000	1.51798	1.81312	-0.82435	0.96071
322.000	1.50613	1.85684	-0.81645	0.96071
323.000	1.51798	1.84888	-0.78482	0.93884
324.000	1.49823	1.79725	-0.81052	0.96867
325.000	1.48637	1.77540	-0.81249	0.90105
326.000	1.53971	1.84291	-0.76505	0.89509
327.000	1.47847	1.83302	-0.79075	0.91299
328.000	1.45476	1.81119	-0.76505	0.90106
329.000	1.51996	1.82504	-0.84017	0.89309
330.000	1.48637	1.78534	-0.79470	0.88912
331.000	1.48835	1.85288	-0.79273	0.96072
332.000	1.48835	1.85288	-0.80063	0.91895
333.000	1.45674	1.86086	-0.74331	0.93288
334.000	1.52589	1.88861	-0.75319	0.92294
335.000	1.55354	1.85680	-0.70575	0.90704
336.000	1.52391	1.84491	-0.78680	0.89111
337.000	1.54367	1.81310	-0.80063	0.87520
338.000	1.50810	1.87671	-0.84412	0.86525
339.000	1.53379	1.90450	-0.75715	0.84538
340.000	1.52391	1.87868	-0.78284	0.90106
341.000	1.47057	1.83303	-0.80459	0.97066
342.000	1.49428	1.89857	-0.79470	0.91696
343.000	1.51996	1.83895	-0.73936	0.90305
344.000	1.47649	1.85885	-0.75715	0.87123
345.000	1.50020	1.89459	-0.79668	0.88117
346.000	1.51601	1.90848	-0.80459	0.84934
347.000	1.53379	1.86476	-0.77494	0.84338
348.000	1.52786	1.91443	-0.75715	0.87521
349.000	1.52193	1.83895	-0.76308	0.87918
350.000	1.49032	1.93235	-0.75319	0.88515
351.000	1.53576	1.94621	-0.79866	0.89906
352.000	1.54959	1.95414	-0.84412	0.90502
353.000	1.55749	1.93229	-0.82040	0.84536
354.000	1.55354	1.96804	-0.81645	0.87321
355.000	1.59503	1.94020	-0.77296	0.85333
356.000	1.58515	1.95014	-0.81249	0.90900
357.000	1.56737	1.90645	-0.87377	0.91098
358.000	1.57527	1.93227	-0.87574	0.91297
359.000	1.55947	1.90845	-0.84017	0.90502
360.000	1.58318	1.96802	-0.82040	0.90304
361.000	1.55749	1.91242	-0.80854	0.93486
362.000	1.54959	1.89256	-0.86586	0.93087
363.000	1.59108	1.89054	-0.86191	0.93087
364.000	1.56540	1.87467	-0.88365	0.88711
365.000	1.54762	1.90846	-0.89353	0.88114
366.000	1.56342	1.88063	-0.86586	0.94479
367.000	1.56737	1.91837	-0.87772	0.93087
368.000	1.57923	1.78923	-0.89156	0.98257
369.000	1.59108	1.86471	-0.82831	0.94679
370.000	1.56342	1.85083	-0.84807	0.95275
371.000	1.57330	1.89850	-0.89353	0.91097
372.000	1.54367	1.85284	-0.85993	0.98059
373.000	1.58120	1.89055	-0.88563	0.95870
374.000	1.59898	1.82497	-0.86191	0.95076
375.000	1.57923	1.86075	-0.89551	0.98654
376.000	1.58713	1.88856	-0.87179	0.94876
377.000	1.55749	1.84090	-0.83621	0.95076
378.000	1.59305	1.86074	-0.85400	0.97263
379.000	1.60688	1.82695	-0.85796	0.92292
380.000	1.57923	1.90048	-0.84610	0.97264
381.000	1.61676	1.85873	-0.86784	0.93683
382.000	1.61873	1.88257	-0.80261	0.93486
383.000	1.57923	1.84684	-0.87970	0.90700
384.000	1.61873	1.82694	-0.84610	0.94281
385.000	1.61281	1.90641	-0.86784	0.90104
386.000	1.57132	1.84089	-0.89749	0.94080
387.000	1.60688	1.84483	-0.87970	0.95075
388.000	1.55947	1.86673	-0.84017	0.91894
389.000	1.62861	1.88454	-0.84412	0.86525
390.000	1.64639	1.87857	-0.87179	0.90700
391.000	1.61281	1.93025	-0.89156	0.92490
392.000	1.61873	1.90045	-0.87970	0.86126
393.000	1.58910	1.89849	-0.84807	0.86127
394.000	1.63849	1.87262	-0.85796	0.89110
395.000	1.61676	1.90243	-0.84610	0.89905
396.000	1.62664	1.85078	-0.83424	0.96071
397.000	1.62466	1.90243	-0.88958	0.90700
398.000	1.61676	1.80112	-0.89749	0.85927
399.000	1.60293	1.87662	-0.83819	0.94281
400.000	1.62071	1.87263	-0.88167	0.96865
401.000	1.60096	1.90642	-0.87179	0.86922
402.000	1.63651	1.94214	-0.91923	0.88909
403.000	1.63849	1.92228	-0.88958	0.86722
404.000	1.60096	1.88258	-0.85796	0.88712
405.000	1.60096	1.91437	-0.86586	0.87916
406.000	1.64837	1.87658	-0.86981	0.87121
407.000	1.62664	1.93818	-0.86191	0.90104
408.000	1.61281	1.91436	-0.91330	0.84733
409.000	1.62861	1.88256	-0.85203	0.88314
410.000	1.61281	1.90840	-0.83424	0.84735
411.000	1.63849	1.92824	-0.86784	0.83740
412.000	1.57923	1.90644	-0.92516	0.83738
413.000	1.57725	1.94617	-0.89353	0.82944
414.000	1.59305	1.95013	-0.89749	0.87319
415.000	1.61281	1.90045	-0.90737	0.82744
416.000	1.55157	1.93428	-0.91725	0.82943
417.000	1.60491	1.89251	-0.95085	0.76180
418.000	1.62664	1.90044	-0.91527	0.91495
419.000	1.63059	1.94016	-0.86784	0.81154
420.000	1.62071	1.94812	-0.90934	0.82546
421.000	1.62466	1.89845	-0.85993	0.86723
422.000	1.63651	1.95009	-0.88167	0.86723
423.000	1.62269	1.94613	-0.83621	0.84337
424.000	1.62466	1.88256	-0.91527	0.78369
425.000	1.58318	1.89651	-0.90342	0.88711
426.000	1.61281	1.89449	-0.91923	0.83142
427.000	1.61478	1.93620	-0.91330	0.83938
428.000	1.62269	1.89051	-0.89551	0.82148
429.000	1.63059	1.88454	-0.92911	0.90301
430.000	1.62466	1.90640	-0.86981	0.83143
431.000	1.58910	1.87862	-0.92911	0.82545
432.000	1.61083	1.93621	-0.89156	0.86325
433.000	1.60293	1.91834	-0.86586	0.82149
434.000	1.58318	1.84684	-0.89749	0.89109
435.000	1.61083	1.86072	-0.85796	0.85530
436.000	1.60293	1.88258	-0.90934	0.83938
437.000	1.58910	1.85876	-0.89946	0.82148
438.000	1.62269	1.87660	-0.86191	0.88513
439.000	1.59700	1.83094	-0.83226	0.89508
440.000	1.60096	1.83292	-0.85796	0.85331
441.000	1.57923	1.86274	-0.90342	0.79960
442.000	1.59503	1.84882	-0.90934	0.88114
443.000	1.58713	1.87068	-0.89353	0.87717
444.000	1.61676	1.85873	-0.90144	0.84137
445.000	1.62269	1.85277	-0.87574	0.82745
446.000	1.63651	1.90639	-0.86388	0.81353
447.000	1.60688	1.85079	-0.93899	0.80954
448.000	1.61281	1.85675	-0.84610	0.84536
449.000	1.63849	1.86268	-0.87970	0.83342
450.000	1.63059	1.81104	-0.88563	0.86524
451.000	1.64639	1.84678	-0.91725	0.84335
452.000	1.60688	1.80709	-0.91330	0.80159
453.000	1.64046	1.84282	-0.91132	0.82943
454.000	1.61083	1.84483	-0.90144	0.82745
455.000	1.63849	1.84282	-0.87970	0.78569
456.000	1.58713	1.83492	-0.91132	0.79761
457.000	1.62071	1.83091	-0.89946	0.79364
458.000	1.59108	1.82895	-0.89156	0.80557
459.000	1.64046	1.82494	-0.89156	0.79364
460.000	1.60491	1.83292	-0.88958	0.83540
461.000	1.64837	1.81897	-0.87179	0.78966
462.000	1.64244	1.85473	-0.90539	0.77176
463.000	1.61281	1.84284	-0.86388	0.80757
464.000	1.61083	1.87066	-0.84412	0.81751
465.000	1.62664	1.86269	-0.85203	0.77972
466.000	1.60293	1.84086	-0.86784	0.87518
467.000	1.58120	1.84287	-0.86981	0.77773
468.000	1.65232	1.84678	-0.89156	0.79165
469.000	1.63454	1.81501	-0.86388	0.82745
470.000	1.64046	1.87261	-0.91330	0.74192
471.000	1.63256	1.87461	-0.88365	0.78568
472.000	1.63454	1.84481	-0.91527	0.80755
473.000	1.62664	1.80707	-0.86388	0.76381
474.000	1.62071	1.84681	-0.86784	0.75784
475.000	1.62664	1.77727	-0.89156	0.80159
476.000	1.66219	1.80108	-0.86981	0.78569
477.000	1.62466	1.80707	-0.86191	0.81154
478.000	1.65232	1.86068	-0.88365	0.74392
479.000	1.62664	1.79714	-0.86191	0.79961
480.000	1.64441	1.84083	-0.86784	0.74790
481.000	1.63256	1.73356	-0.84412	0.83740
482.000	1.65232	1.82493	-0.83621	0.78967
483.000	1.62861	1.81104	-0.83819	0.73199
484.000	1.62269	1.77727	-0.86784	0.77574
485.000	1.62071	1.78920	-0.87574	0.76182
486.000	1.63651	1.77329	-0.85400	0.81950
487.000	1.65824	1.81101	-0.85005	0.74393
488.000	1.64244	1.77924	-0.84412	0.80160
489.000	1.65034	1.80506	-0.86388	0.78569
490.000	1.61478	1.83688	-0.81052	0.78769
491.000	1.63454	1.81501	-0.82238	0.81155
492.000	1.62664	1.76138	-0.83424	0.79365
493.000	1.62071	1.80708	-0.84807	0.78768
494.000	1.64244	1.83685	-0.84610	0.79166
495.000	1.65034	1.81102	-0.84610	0.84735
496.000	1.67207	1.81299	-0.82633	0.78172
497.000	1.65232	1.77526	-0.82040	0.79365
498.000	1.62269	1.80509	-0.81842	0.82349
499.000	1.60293	1.75345	-0.86191	0.78768
500.000	1.62269	1.78125	-0.84017	0.75387
501.000	1.66417	1.82889	-0.82435	0.79564
502.000	1.66614	1.82889	-0.86586	0.74193
503.000	1.64639	1.85672	-0.81645	0.74592
504.000	1.66022	1.86664	-0.80459	0.79962
505.000	1.63256	1.77925	-0.80656	0.79167
506.000	1.62664	1.75343	-0.83226	0.73398
507.000	1.64639	1.80507	-0.85005	0.78768
508.000	1.68787	1.75536	-0.83819	0.77973
509.000	1.70367	1.81097	-0.84412	0.71409
510.000	1.63454	1.76137	-0.80063	0.75388
511.000	1.63454	1.80110	-0.85203	0.81354
512.000	1.61676	1.78324	-0.85203	0.73796
513.000	1.62664	1.83091	-0.85598	0.75188
514.000	1.62861	1.75740	-0.85796	0.74591
515.000	1.59898	1.76339	-0.84214	0.77774
516.000	1.62861	1.75740	-0.78877	0.77974
517.000	1.62861	1.82296	-0.84017	0.80160
518.000	1.61478	1.80509	-0.81842	0.80559
519.000	1.66812	1.82293	-0.82831	0.79365
520.000	1.65034	1.85473	-0.84807	0.76779
521.000	1.65232	1.77129	-0.87970	0.80359
522.000	1.67602	1.78915	-0.81447	0.78371
523.000	1.63059	1.83488	-0.84610	0.76183
524.000	1.66614	1.84081	-0.76901	0.78969
525.000	1.63454	1.81104	-0.82633	0.82348
526.000	1.64046	1.81302	-0.80459	0.74592
527.000	1.63256	1.86070	-0.85203	0.78569
528.000	1.63651	1.78918	-0.87179	0.83939
529.000	1.66219	1.75538	-0.86586	0.76182
530.000	1.67009	1.84279	-0.83621	0.73796
531.000	1.68787	1.81893	-0.83028	0.80360
532.000	1.61478	1.77927	-0.80261	0.85332
533.000	1.61083	1.80311	-0.87179	0.82944
534.000	1.64837	1.82692	-0.84214	0.80757
535.000	1.63651	1.82295	-0.89551	0.82546
536.000	1.65627	1.84082	-0.85005	0.87121
537.000	1.61083	1.78920	-0.85598	0.84535
538.000	1.65232	1.84281	-0.81447	0.92293
539.000	1.63849	1.82097	-0.84017	0.88315
540.000	1.66219	1.87259	-0.87179	0.90501
541.000	1.62664	1.86071	-0.88167	0.88711
542.000	1.58713	1.79717	-0.91923	0.86921
543.000	1.63849	1.80507	-0.84412	0.92491
544.000	1.61873	1.78125	-0.84412	0.91496
545.000	1.64837	1.78122	-0.88760	0.89706
546.000	1.61676	1.84085	-0.86586	0.89109
547.000	1.63651	1.78918	-0.85203	0.89706
548.000	1.61873	1.82893	-0.88563	0.82546
549.000	1.66022	1.87856	-0.86784	0.87717
550.000	1.59700	1.82299	-0.88563	0.94280
551.000	1.62664	1.84283	-0.94690	0.87318
552.000	1.65232	1.88055	-0.89156	0.87717
553.000	1.66022	1.84876	-0.86191	0.82944
554.000	1.64441	1.86268	-0.80854	0.87719
555.000	1.67207	1.86861	-0.85598	0.92292
556.000	1.58515	1.88458	-0.86784	0.92092
557.000	1.61873	1.86866	-0.90737	0.95074
558.000	1.65232	1.89247	-0.91923	0.87119
559.000	1.65824	1.86664	-0.83819	0.88513
560.000	1.67207	1.89642	-0.89156	0.87717
561.000	1.67997	1.89244	-0.91132	0.89108
562.000	1.64837	1.87062	-0.84807	0.92292
563.000	1.63651	1.84481	-0.86784	0.82944
564.000	1.66219	1.85472	-0.92516	0.86722
565.000	1.65627	1.88849	-0.87772	0.81552
566.000	1.61873	1.87065	-0.87377	0.82944
567.000	1.64639	1.93419	-0.93702	0.85329
568.000	1.63651	1.87659	-0.93504	0.80158
569.000	1.64046	1.81898	-0.88167	0.86325
570.000	1.65429	1.79513	-0.89946	0.84932
571.000	1.64837	1.81301	-0.90342	0.88512
572.000	1.65429	1.88849	-0.91527	0.92091
573.000	1.63651	1.82097	-0.88563	0.92291
574.000	1.64441	1.83685	-0.88563	0.86325
575.000	1.63849	1.81302	-0.86388	0.92689
576.000	1.65429	1.83088	-0.89551	0.84733
577.000	1.61676	1.76933	-0.85400	0.86524
578.000	1.62071	1.73555	-0.83819	0.88712
579.000	1.61281	1.73357	-0.87179	0.75188
580.000	1.62071	1.69582	-0.88167	0.69619
581.000	1.59503	1.67597	-0.91923	0.67430
582.000	1.55749	1.65017	-0.91725	0.56093
583.000	1.53379	1.54089	-0.91330	0.54502
584.000	1.48242	1.55682	-0.91527	0.50922
585.000	1.50415	1.46340	-0.97457	0.50324
586.000	1.49823	1.49918	-0.92911	0.55496
587.000	1.49823	1.51110	-0.88365	0.52315
588.000	1.52391	1.48326	-0.92911	0.50723
589.000	1.51996	1.45345	-0.85598	0.47740
590.000	1.51798	1.56674	-0.86586	0.58083
591.000	1.56935	1.51105	-0.85203	0.55696
592.000	1.58120	1.56470	-0.84412	0.61465
593.000	1.59305	1.59847	-0.80656	0.64449
594.000	1.57527	1.60445	-0.80656	0.66040
595.000	1.58120	1.67598	-0.82435	0.67631
596.000	1.56737	1.66804	-0.84610	0.67233
597.000	1.58318	1.67399	-0.82831	0.62260
598.000	1.53576	1.57666	-0.89946	0.61066
599.000	1.57527	1.63624	-0.90737	0.60469
600.000	1.60886	1.53289	-0.91330	0.62458
601.000	1.53379	1.47332	-0.88167	0.60271
602.000	1.61281	1.54083	-0.89551	0.56889
603.000	1.58120	1.53887	-0.92713	0.65043
604.000	1.54169	1.50511	-0.87772	0.62856
605.000	1.54367	1.46139	-0.89156	0.63851
606.000	1.58515	1.50707	-0.90144	0.63055
607.000	1.60293	1.47526	-0.89749	0.67033
608.000	1.58713	1.55675	-0.87377	0.70414
609.000	1.61676	1.60442	-0.85400	0.69619
610.000	1.60293	1.66801	-0.85598	0.75984
611.000	1.61478	1.62628	-0.85598	0.82944
612.000	1.55749	1.60446	-0.86586	0.78768
613.000	1.56540	1.60247	-0.87970	0.79762
614.000	1.57725	1.64022	-0.83424	0.83939
615.000	1.55552	1.70779	-0.87970	0.82944
616.000	1.58713	1.63623	-0.81645	0.81752
617.000	1.58120	1.67598	-0.86586	0.74790
618.000	1.55552	1.66010	-0.85993	0.78171
619.000	1.58713	1.66008	-0.89551	0.76977
620.000	1.61478	1.62628	-0.87377	0.69420
621.000	1.61083	1.61237	-0.86191	0.68823
622.000	1.60293	1.63821	-0.82831	0.67233
623.000	1.58120	1.53887	-0.88167	0.72005
624.000	1.54959	1.59056	-0.87377	0.66039
625.000	1.61676	1.58256	-0.89946	0.70414
626.000	1.62664	1.61633	-0.91330	0.67828
627.000	1.62664	1.63223	-0.86981	0.67829
628.000	1.57132	1.61041	-0.86191	0.70017
629.000	1.56540	1.65612	-0.84214	0.72802
630.000	1.60293	1.61834	-0.88563	0.68823
631.000	1.64639	1.66202	-0.82435	0.77774
632.000	1.61281	1.57660	-0.85796	0.76182
633.000	1.58910	1.67796	-0.92120	0.72402
634.000	1.62071	1.67992	-0.92713	0.79562
635.000	1.59503	1.63821	-0.88167	0.82347
636.000	1.60688	1.64218	-0.86784	0.78768
637.000	1.57923	1.61438	-0.86388	0.80955
638.000	1.61676	1.64217	-0.87970	0.74193
639.000	1.61281	1.62826	-0.85993	0.81751
640.000	1.59305	1.55277	-0.90539	0.77375
641.000	1.61478	1.59448	-0.89551	0.69817
642.000	1.59503	1.58258	-0.88958	0.75585
643.000	1.63454	1.57857	-0.86586	0.83939
644.000	1.59108	1.60841	-0.88167	0.75187
645.000	1.66219	1.57457	-0.83819	0.77376
646.000	1.59503	1.58456	-0.89749	0.75585
647.000	1.61676	1.56070	-0.86981	0.76580
648.000	1.66219	1.53483	-0.87772	0.77375
649.000	1.60293	1.57860	-0.85993	0.78171
650.000	1.62664	1.57262	-0.88167	0.72005
651.000	1.57132	1.51900	-0.87574	0.78569
652.000	1.56737	1.59452	-0.89353	0.73994
653.000	1.62071	1.57262	-0.86784	0.77177
654.000	1.59305	1.57463	-0.83028	0.74592
655.000	1.62269	1.63620	-0.86981	0.74591
656.000	1.60096	1.52295	-0.88760	0.76182
657.000	1.61083	1.59449	-0.85993	0.73796
658.000	1.60096	1.59648	-0.85598	0.75188
659.000	1.60688	1.56866	-0.85005	0.67431
660.000	1.57725	1.60047	-0.84610	0.64249
661.000	1.56342	1.57465	-0.92713	0.61463
662.000	1.61478	1.59051	-0.90144	0.54104
663.000	1.55947	1.66209	-0.86784	0.56492
664.000	1.54762	1.67402	-0.84807	0.63255
665.000	1.51798	1.61443	-0.85203	0.58282
666.000	1.54959	1.66408	-0.86784	0.56889
667.000	1.55157	1.62831	-0.87179	0.59077
668.000	1.56935	1.62830	-0.89749	0.58281
669.000	1.54564	1.53492	-0.85993	0.59276
670.000	1.54762	1.54287	-0.93109	0.55894
671.000	1.57330	1.60644	-0.88760	0.56491
672.000	1.53379	1.58858	-0.90144	0.57685
673.000	1.54762	1.59255	-0.92911	0.56491
674.000	1.56342	1.58657	-0.90539	0.59077
675.000	1.58120	1.56271	-0.90934	0.51519
676.000	1.60491	1.57263	-0.88958	0.56094
677.000	1.57725	1.61041	-0.88760	0.61663
678.000	1.54959	1.55678	-0.92516	0.67629
679.000	1.51601	1.63629	-0.89749	0.63652
680.000	1.50613	1.54687	-0.88958	0.62061
681.000	1.58120	1.58656	-0.92713	0.64447
682.000	1.49230	1.56278	-0.93109	0.65441
683.000	1.52589	1.58660	-0.94690	0.67032
684.000	1.56342	1.57664	-0.92713	0.61065
685.000	1.53971	1.57467	-0.93306	0.72800
686.000	1.56935	1.59452	-0.92120	0.66038
687.000	1.58713	1.61040	-0.93702	0.68424
688.000	1.57527	1.63028	-0.93306	0.61662
689.000	1.52786	1.62436	-0.94097	0.66037
690.000	1.52391	1.64820	-0.90934	0.65044
691.000	1.56935	1.63426	-0.93306	0.66833
692.000	1.54762	1.65017	-0.92120	0.61662
693.000	1.51008	1.63431	-0.91725	0.64646
694.000	1.50613	1.60053	-0.93109	0.62060
695.000	1.52391	1.66211	-0.92911	0.62855
696.000	1.53576	1.60647	-0.92713	0.66038
697.000	1.56737	1.67202	-0.92516	0.60270
698.000	1.52391	1.58064	-0.92911	0.65242
699.000	1.53379	1.60647	-0.97457	0.65241
700.000	1.50415	1.57072	-0.93109	0.59474
701.000	1.54762	1.61639	-0.89946	0.55895
702.000	1.57725	1.55079	-0.91923	0.61066
703.000	1.53774	1.62634	-0.92120	0.64049
704.000	1.52391	1.58462	-0.92713	0.61463
705.000	1.54367	1.58460	-0.91923	0.58878
706.000	1.58318	1.60246	-0.89156	0.60469
707.000	1.51403	1.64821	-0.92516	0.64248
708.000	1.53774	1.58262	-0.93109	0.67032
709.000	1.51601	1.58860	-0.92713	0.67828
710.000	1.51798	1.57866	-0.93109	0.65242
711.000	1.48045	1.61048	-0.93306	0.66237
712.000	1.52984	1.57269	-0.88760	0.67630
713.000	1.56342	1.61042	-0.89353	0.67828
714.000	1.49823	1.60053	-0.86388	0.66834
715.000	1.51601	1.56078	-0.87179	0.66635
716.000	1.51008	1.57469	-0.88365	0.62061
717.000	1.52589	1.52301	-0.91330	0.63651
718.000	1.51798	1.50115	-0.91330	0.59872
719.000	1.50218	1.53892	-0.89749	0.65243
720.000	1.48440	1.52503	-0.87377	0.58282
721.000	1.52193	1.53891	-0.89551	0.66436
722.000	1.51601	1.48327	-0.90737	0.66436
723.000	1.51403	1.50513	-0.90934	0.66038
724.000	1.49625	1.46540	-0.87772	0.66039
725.000	1.51996	1.48327	-0.90737	0.66038
726.000	1.51996	1.45942	-0.94690	0.62258
727.000	1.50415	1.53097	-0.85598	0.66039
728.000	1.52193	1.47929	-0.92516	0.63452
729.000	1.50810	1.51706	-0.93504	0.67430
730.000	1.53181	1.52301	-0.90342	0.64049
731.000	1.50415	1.51309	-0.86981	0.61464
732.000	1.49230	1.47335	-0.88958	0.61862
733.000	1.49625	1.49322	-0.94097	0.62656
734.000	1.51008	1.50116	-0.90934	0.64248
735.000	1.53576	1.57070	-0.89551	0.62856
736.000	1.57330	1.56868	-0.88958	0.64248
737.000	1.53379	1.50909	-0.90934	0.62060
738.000	1.51403	1.53693	-0.90737	0.64049
739.000	1.52193	1.57071	-0.91132	0.60469
740.000	1.54367	1.55479	-0.97062	0.61860
741.000	1.51008	1.58860	-0.92911	0.58281
742.000	1.55552	1.55081	-0.89353	0.57884
743.000	1.53576	1.54089	-0.90342	0.61662
744.000	1.52391	1.54487	-0.95876	0.58678
745.000	1.48242	1.48528	-0.92911	0.52115
746.000	1.50218	1.49918	-0.92120	0.54900
747.000	1.53576	1.56672	-0.97259	0.56291
748.000	1.52589	1.49916	-0.88760	0.55099
749.000	1.53774	1.50511	-0.93109	0.58082
750.000	1.50810	1.48526	-0.90539	0.49728
751.000	1.50020	1.50514	-0.93899	0.57286
752.000	1.57132	1.51304	-0.91330	0.58082
753.000	1.52786	1.48326	-0.90342	0.51519
754.000	1.56737	1.52298	-0.93306	0.54899
755.000	1.55354	1.50709	-0.95480	0.50921
756.000	1.53181	1.48326	-0.90342	0.52911
757.000	1.55157	1.48324	-0.92713	0.52513
758.000	1.55157	1.47132	-0.96073	0.54700
759.000	1.50810	1.45943	-0.84017	0.56293
760.000	1.52589	1.52698	-0.92120	0.50325
761.000	1.52786	1.43159	-0.91132	0.49331
762.000	1.50415	1.46142	-0.86784	0.53309
763.000	1.49230	1.49123	-0.90539	0.56491
764.000	1.48440	1.44752	-0.90934	0.57684
765.000	1.51206	1.48923	-0.85993	0.52116
766.000	1.52589	1.48127	-0.88365	0.55099
767.000	1.52786	1.45146	-0.81645	0.60669
768.000	1.48045	1.44156	-0.83819	0.51321
769.000	1.48637	1.45944	-0.85796	0.56094
770.000	1.54762	1.47331	-0.88167	0.61066
771.000	1.51798	1.41172	-0.91923	0.60071
772.000	1.51798	1.46339	-0.93306	0.60866
773.000	1.52391	1.43954	-0.90342	0.63850
774.000	1.52589	1.43358	-0.91725	0.59474
775.000	1.47452	1.37199	-0.91330	0.59872
776.000	1.50020	1.40577	-0.93306	0.64844
777.000	1.50415	1.41769	-0.85203	0.63652
778.000	1.51206	1.40775	-0.86388	0.64448
779.000	1.53181	1.36798	-0.87970	0.65243
780.000	1.52589	1.38389	-0.89353	0.63652
781.000	1.48045	1.39584	-0.85796	0.62658
782.000	1.50613	1.39185	-0.86388	0.64845
783.000	1.54169	1.39779	-0.91725	0.66436
784.000	1.48835	1.39186	-0.90342	0.62856
785.000	1.51008	1.34415	-0.87772	0.64646
786.000	1.50020	1.38788	-0.85400	0.61464
787.000	1.52193	1.31631	-0.85005	0.62260
788.000	1.50415	1.33620	-0.85598	0.65243
789.000	1.48045	1.35211	-0.88760	0.59674
790.000	1.49823	1.41571	-0.88563	0.66834
791.000	1.50020	1.47136	-0.86586	0.58083
792.000	1.55354	1.44151	-0.87772	0.62061
793.000	1.53971	1.41767	-0.87179	0.62856
794.000	1.52193	1.46339	-0.90737	0.63850
795.000	1.54169	1.47331	-0.91132	0.63850
796.000	1.52391	1.47531	-0.89551	0.58480
797.000	1.53379	1.46140	-0.91132	0.60668
798.000	1.54169	1.44350	-0.90934	0.54701
799.000	1.50020	1.45148	-0.90144	0.53309
800.000	1.52193	1.44749	-0.88958	0.58878
801.000	1.50415	1.45148	-0.90934	0.55298
802.000	1.53774	1.43158	-0.89353	0.60867
803.000	1.51403	1.45346	-0.91330	0.57485
804.000	1.49823	1.44552	-0.89749	0.60071
805.000	1.51008	1.41967	-0.88167	0.55099
806.000	1.53181	1.43755	-0.92713	0.63054
807.000	1.54169	1.44350	-0.87179	0.58282
808.000	1.49032	1.42962	-0.90737	0.65044
809.000	1.52391	1.42364	-0.87179	0.63851
810.000	1.54169	1.40972	-0.90342	0.68823
811.000	1.53576	1.38984	-0.89946	0.63850
812.000	1.57330	1.38187	-0.91330	0.56292
813.000	1.54959	1.40574	-0.88760	0.68226
814.000	1.53181	1.40376	-0.91132	0.66436
815.000	1.57330	1.39777	-0.86191	0.66039
816.000	1.52589	1.35407	-0.89946	0.62259
817.000	1.52984	1.33618	-0.94887	0.62656
818.000	1.51206	1.39781	-0.91725	0.63452
819.000	1.51996	1.35408	-0.88760	0.69619
820.000	1.55354	1.33617	-0.89749	0.67431
821.000	1.51206	1.41570	-0.92120	0.68822
822.000	1.54564	1.41568	-0.85203	0.71409
823.000	1.54959	1.38188	-0.86586	0.73796
824.000	1.50613	1.37595	-0.88760	0.73000
825.000	1.57132	1.34609	-0.87574	0.73597
826.000	1.53181	1.38190	-0.91725	0.67629
827.000	1.55749	1.37592	-0.86784	0.66437
828.000	1.52193	1.38588	-0.89353	0.68624
829.000	1.54959	1.38984	-0.90144	0.68624
830.000	1.54564	1.40574	-0.86388	0.66238
831.000	1.58120	1.44149	-0.90144	0.64447
832.000	1.55157	1.43952	-0.89156	0.63652
833.000	1.56737	1.42560	-0.88365	0.66039
834.000	1.54959	1.43356	-0.85598	0.67431
835.000	1.53181	1.40575	-0.88365	0.66834
836.000	1.54367	1.43356	-0.86388	0.65044
837.000	1.55157	1.43555	-0.88760	0.68624
838.000	1.52193	1.41569	-0.87179	0.61862
839.000	1.53971	1.42164	-0.87970	0.60668
840.000	1.53181	1.40972	-0.85598	0.61067
841.000	1.52786	1.41171	-0.87772	0.65641
842.000	1.57132	1.43553	-0.85796	0.61663
843.000	1.57132	1.44944	-0.87970	0.56690
844.000	1.55157	1.39977	-0.91132	0.65640
845.000	1.55157	1.46536	-0.83819	0.63851
846.000	1.54959	1.38984	-0.84214	0.70216
847.000	1.59700	1.45936	-0.87574	0.64249
848.000	1.56540	1.42759	-0.91330	0.69021
849.000	1.54762	1.44549	-0.88563	0.68823
850.000	1.53181	1.40376	-0.89353	0.72403
851.000	1.53181	1.35606	-0.88365	0.66834
852.000	1.59898	1.38980	-0.87772	0.70016
853.000	1.52589	1.38389	-0.84807	0.72603
854.000	1.54367	1.39580	-0.86784	0.67431
855.000	1.54959	1.38785	-0.87377	0.72602
856.000	1.53576	1.35407	-0.86191	0.73597
857.000	1.52391	1.31233	-0.87377	0.71409
858.000	1.55552	1.36996	-0.83819	0.70216
859.000	1.55157	1.36400	-0.79866	0.71808
860.000	1.59305	1.36198	-0.80459	0.72802
861.000	1.55552	1.32027	-0.83819	0.77774
862.000	1.57132	1.27454	-0.83028	0.70614
863.000	1.53576	1.35407	-0.83226	0.69818
864.000	1.49032	1.33422	-0.83226	0.71608
865.000	1.42117	1.39787	-0.85796	0.67033
866.000	1.38758	1.41975	-0.89946	0.70613
867.000	1.33424	1.42773	-0.93109	0.71209
868.000	1.26310	1.54305	-1.07932	0.73791
869.000	1.15441	1.60870	-1.22753	0.77367
870.000	0.96666	1.68035	-1.42117	0.82531
871.000	0.78482	1.69435	-1.59503	0.94652
872.000	0.67215	1.84344	-1.78466	1.00010
873.000	0.50215	1.85741	-1.83403	1.13524
874.000	0.40923	1.95679	-2.01571	1.22654
875.000	0.17595	2.01247	-2.12233	1.32382
876.000	-0.01384	2.12573	-2.33355	1.46269
877.000	-0.22340	2.16545	-2.41841	1.48048
878.000	-0.33609	2.22502	-2.53089	1.59952
879.000	-0.42702	2.38985	-2.69267	1.67080
880.000	-0.56540	2.42356	-2.79129	1.68654
881.000	-0.70575	2.50689	-2.93920	1.68037
882.000	-0.84214	2.53262	-3.10283	1.70195
883.000	-1.02200	2.60395	-3.18365	1.77524
884.000	-1.17418	2.58000	-3.40237	1.63199
885.000	-1.30460	2.51437	-3.59146	1.66142
886.000	-1.45279	2.54994	-3.75684	1.67897
887.000	-1.68787	2.50004	-3.82180	1.69669
888.000	-1.83403	2.48198	-4.07562	1.59505
889.000	-1.93672	2.55724	-4.34108	1.63811
890.000	-2.14207	2.59065	-4.43149	1.68746
891.000	-2.40263	2.57629	-4.55331	1.74662
892.000	-2.55457	2.49070	-4.75560	1.73423
893.000	-2.63349	2.61550	-4.92049	1.82292
894.000	-2.80905	2.64288	-5.14021	1.91929
895.000	-2.94314	2.74368	-5.22845	1.90121
896.000	-3.10283	2.75913	-5.34018	1.99188
897.000	-3.19744	2.79257	-5.42837	2.04698
898.000	-3.30189	2.79624	-5.52044	2.11984
899.000	-3.36297	2.79211	-5.69863	2.09744
900.000	-3.40237	2.86331	-5.65164	2.11343
901.000	-3.41419	2.88705	-5.75735	2.13874
902.000	-3.46344	2.93642	-5.79453	2.14848
903.000	-3.46541	2.94433	-5.77300	2.21379
904.000	-3.41025	2.94846	-5.74365	2.17832
905.000	-3.36888	2.97632	-5.69471	2.24176
906.000	-3.36888	2.92482	-5.66143	2.21224
907.000	-3.22306	2.96883	-5.55373	2.22253
908.000	-3.21124	3.00650	-5.46559	2.21495
909.000	-3.16394	2.97494	-5.46755	2.24065
910.000	-3.08904	2.98308	-5.34410	2.22529
911.000	-3.05749	2.92967	-5.25198	2.12473
912.000	-3.01412	2.94564	-5.18924	2.12494
913.000	-3.03384	2.95550	-5.17943	2.05572
914.000	-2.99441	2.96749	-5.16374	1.99838
915.000	-3.02398	2.91986	-5.18139	1.98448
916.000	-3.00229	2.88623	-5.13825	1.98461
917.000	-3.02792	2.88418	-5.08922	2.01247
918.000	-3.03187	2.88020	-5.21277	2.01208
919.000	-3.04172	2.92575	-5.25394	2.06537
920.000	-3.08706	2.91176	-5.22061	2.08922
921.000	-3.05158	2.92573	-5.28726	2.06130
922.000	-3.06932	2.88407	-5.34214	2.12046
923.000	-3.07524	2.89198	-5.34998	2.19164
924.000	-3.05552	2.96732	-5.39310	2.15787
925.000	-3.08706	2.91374	-5.36958	2.15399
926.000	-3.01215	2.92187	-5.36370	2.19555
927.000	-3.09101	2.89193	-5.37154	2.16981
928.000	-3.03384	2.91587	-5.41073	2.19340
929.000	-3.06341	2.90588	-5.45579	2.24070
930.000	-3.00032	2.88821	-5.43620	2.19331
931.000	-3.00229	2.91595	-5.42053	2.15777
932.000	-3.05158	2.93167	-5.43816	2.22692
933.000	-3.00426	2.93972	-5.41269	2.18746
934.000	-3.02989	2.92578	-5.40877	2.16572
935.000	-2.98061	2.87836	-5.42445	2.26850
936.000	-2.99046	2.91202	-5.43032	2.18542
937.000	-3.02201	2.94760	-5.44796	2.14976
938.000	-3.00032	2.89416	-5.44600	2.15372
939.000	-3.02398	2.93175	-5.45188	2.09041
940.000	-3.01807	2.88817	-5.43228	2.09048
941.000	-3.04764	2.92574	-5.41269	2.10835
942.000	-3.06341	2.86427	-5.41661	2.14592
943.000	-3.03581	2.91784	-5.38526	2.14207
944.000	-3.05355	2.90194	-5.33430	2.15214
945.000	-3.05158	2.91582	-5.40093	2.16970
946.000	-3.05749	2.92571	-5.37938	2.10451
947.000	-3.02004	2.95553	-5.40093	2.15982
948.000	-3.04764	2.96933	-5.37742	2.17572
949.000	-3.03384	2.93370	-5.33430	2.17785
950.000	-3.03778	2.97530	-5.38526	2.13416
951.000	-3.05158	2.94554	-5.36958	2.16388
952.000	-3.07524	2.98906	-5.38330	2.14406
953.000	-3.05947	2.94156	-5.35586	2.20349
954.000	-3.04567	2.96339	-5.36958	2.22519
955.000	-3.06735	2.92370	-5.34410	2.18771
956.000	-3.11663	2.98300	-5.35978	2.17776
957.000	-3.04764	2.99112	-5.37546	2.28055
958.000	-3.02595	2.99712	-5.39506	2.29234
959.000	-3.06735	2.98512	-5.36958	2.24497
960.000	-3.05158	3.00300	-5.37350	2.25089
961.000	-3.07524	2.94746	-5.32646	2.27875
962.000	-3.07129	3.01483	-5.31470	2.28868
963.000	-3.07524	2.95340	-5.32254	2.29261
964.000	-3.10086	2.96918	-5.35978	2.26478
965.000	-3.08115	3.01480	-5.32842	2.33016
966.000	-3.09889	2.99494	-5.32646	2.33215
967.000	-3.07327	2.99303	-5.38330	2.29041
968.000	-3.11466	3.00084	-5.32842	2.27281
969.000	-3.15211	2.98290	-5.41073	2.30414
970.000	-3.13832	2.97304	-5.35390	2.36171
971.000	-3.09692	3.00683	-5.36174	2.28258
972.000	-3.12255	3.02459	-5.35782	2.31819
973.000	-3.09298	3.06231	-5.34410	2.31824
974.000	-3.10481	3.06426	-5.35782	2.27864
975.000	-3.11466	3.01867	-5.38330	2.27063
976.000	-3.10481	3.06822	-5.37742	2.28647
977.000	-3.10481	3.03058	-5.39506	2.25872
978.000	-3.08509	3.02668	-5.35782	2.27864
979.000	-3.09495	3.07815	-5.36566	2.30431
980.000	-3.14029	3.05425	-5.36566	2.32211
981.000	-3.15605	3.04430	-5.34998	2.31822
982.000	-3.10086	3.10388	-5.43620	2.31393
983.000	-3.16000	3.06410	-5.40289	2.29231
984.000	-3.15014	3.08393	-5.33626	2.33804
985.000	-3.10283	3.09199	-5.39506	2.31804
986.000	-3.11269	3.05433	-5.41465	2.27051
987.000	-3.10875	3.05632	-5.41269	2.26657
988.000	-3.14226	3.11763	-5.40093	2.30814
989.000	-3.11663	3.08205	-5.41269	2.29227
990.000	-3.10481	3.11972	-5.42249	2.30410
991.000	-3.10283	3.06822	-5.43424	2.26648
992.000	-3.08706	3.11779	-5.37154	2.24694
993.000	-3.06932	3.08615	-5.37546	2.31614
994.000	-3.07918	3.08216	-5.37742	2.27263
995.000	-3.11663	3.11572	-5.36762	2.21334
996.000	-3.11269	3.11177	-5.34410	2.31428
997.000	-3.11663	3.09790	-5.36762	2.32408
998.000	-3.08312	3.12968	-5.40289	2.27649
999.000	-3.05947	3.15946	-5.39506	2.31211
1000.000	-3.08509	3.12572	-5.39114	2.26862
1001.000	-3.08115	3.16534	-5.39506	2.27652
1002.000	-3.01609	3.15761	-5.38330	2.28250
1003.000	-3.07129	3.18319	-5.35782	2.27270
1004.000	-3.08509	3.10591	-5.38918	2.30027
1005.000	-3.09692	3.14747	-5.37742	2.30031
1006.000	-3.10086	3.17518	-5.41073	2.36346
1007.000	-3.10283	3.11378	-5.41269	2.31205
1008.000	-3.05947	3.14758	-5.41269	2.32193
1009.000	-3.06538	3.15945	-5.40093	2.29429
1010.000	-3.05552	3.14165	-5.43816	2.36335
1011.000	-3.10283	3.15141	-5.38526	2.34774
1012.000	-3.07721	3.14357	-5.42837	2.33374
1013.000	-3.09101	3.19304	-5.38722	2.34180
1014.000	-3.04961	3.10205	-5.43424	2.38116
1015.000	-3.05749	3.15749	-5.39114	2.30620
1016.000	-3.09298	3.19897	-5.43424	2.35942
1017.000	-3.05355	3.15948	-5.45579	2.32177
1018.000	-3.06341	3.15351	-5.41073	2.29821
1019.000	-3.06735	3.18321	-5.40289	2.32988
1020.000	-3.06932	3.14953	-5.43620	2.33964
1021.000	-3.10086	3.18905	-5.43228	2.34954
1022.000	-3.08706	3.13363	-5.42249	2.33178
1023.000	-3.08115	3.17128	-5.42053	2.28631
1024.000	-3.04961	3.19118	-5.42837	2.31594
1025.000	-3.06144	3.19511	-5.42837	2.34362
1026.000	-3.07721	3.14357	-5.43228	2.34756
1027.000	-3.06932	3.19112	-5.41073	2.38917
1028.000	-3.09692	3.14549	-5.43032	2.36339
1029.000	-3.04369	3.19120	-5.42641	2.41480
1030.000	-3.05552	3.21097	-5.42837	2.34758
1031.000	-3.06341	3.13370	-5.39310	2.37737
1032.000	-3.08509	3.18117	-5.39310	2.38923
1033.000	-3.10086	3.15736	-5.39897	2.36549
1034.000	-3.07327	3.24458	-5.41073	2.32985
1035.000	-3.08312	3.18316	-5.43032	2.41084
1036.000	-3.08706	3.19701	-5.46755	2.33754
1037.000	-3.08312	3.22871	-5.43424	2.40489
1038.000	-3.05552	3.21889	-5.44600	2.36135
1039.000	-3.07327	3.22478	-5.45971	2.38502
1040.000	-3.04764	3.18921	-5.44012	2.36928
1041.000	-3.08509	3.19900	-5.44796	2.41867
1042.000	-3.05158	3.21494	-5.44012	2.37916
1043.000	-3.01609	3.25069	-5.40093	2.51375
1044.000	-3.07918	3.15940	-5.44796	2.41867
1045.000	-3.07918	3.19703	-5.43816	2.37324
1046.000	-3.03384	3.21895	-5.45775	2.45224
1047.000	-3.03581	3.24271	-5.42053	2.42274
1048.000	-2.99835	3.25074	-5.44208	2.39893
1049.000	-3.03975	3.24864	-5.45775	2.38700
1050.000	-2.97469	3.27458	-5.43620	2.45233
1051.000	-3.01807	3.24870	-5.43816	2.41871
1052.000	-3.04369	3.26051	-5.44600	2.42263
1053.000	-3.02398	3.26453	-5.51456	2.42038
1054.000	-3.04172	3.20903	-5.49302	2.39675
1055.000	-2.96680	3.27658	-5.44012	2.43650
1056.000	-2.99441	3.25274	-5.47930	2.39878
1057.000	-2.97863	3.31219	-5.46755	2.45418
1058.000	-3.01215	3.28041	-5.47734	2.46402
1059.000	-2.98849	3.28642	-5.45971	2.43642
1060.000	-2.99441	3.27452	-5.51652	2.36898
1061.000	-2.99046	3.27849	-5.47734	2.50355
1062.000	-3.01215	3.29229	-5.50673	2.46587
1063.000	-3.00229	3.27648	-5.50673	2.45006
1064.000	-3.01807	3.29623	-5.46755	2.45220
1065.000	-3.00032	3.28242	-5.48518	2.41852
1066.000	-3.00426	3.29627	-5.50085	2.47776
1067.000	-3.02201	3.28830	-5.43228	2.46816
1068.000	-2.98652	3.31811	-5.50085	2.45602
1069.000	-3.01807	3.29623	-5.44992	2.46018
1070.000	-3.02004	3.30018	-5.48714	2.48177
1071.000	-3.03187	3.29619	-5.52240	2.45000
1072.000	-3.02792	3.27640	-5.52631	2.45789
1073.000	-3.02398	3.32789	-5.52240	2.45790
1074.000	-3.03384	3.27638	-5.49302	2.46395
1075.000	-3.00624	3.29231	-5.57136	2.46758
1076.000	-3.03581	3.28628	-5.54198	2.50921
1077.000	-2.99441	3.33392	-5.52436	2.42627
1078.000	-2.99244	3.32007	-5.55178	2.47755
1079.000	-2.99835	3.33391	-5.54590	2.48548
1080.000	-3.00426	3.29231	-5.49106	2.46989
1081.000	-2.97075	3.34389	-5.51652	2.42630
1082.000	-3.00624	3.31409	-5.56940	2.42806
1083.000	-3.03975	3.33774	-5.48910	2.48176
1084.000	-3.02004	3.31800	-5.51848	2.50931
1085.000	-2.97666	3.36566	-5.52436	2.50731
1086.000	-2.98849	3.32404	-5.53023	2.47566
1087.000	-3.04369	3.33773	-5.52827	2.48160
1088.000	-2.98258	3.27851	-5.51652	2.45200
1089.000	-2.98258	3.30822	-5.54590	2.42025
1090.000	-3.02792	3.33382	-5.57332	2.41619
1091.000	-2.99835	3.25272	-5.61836	2.47134
1092.000	-3.03581	3.30212	-5.56744	2.46562
1093.000	-3.08706	3.32176	-5.65360	2.49687
1094.000	-3.21321	3.42231	-5.78083	2.43112
1095.000	-3.40434	3.40978	-5.92561	2.45025
1096.000	-3.54222	3.37168	-6.14654	2.41173
1097.000	-3.72928	3.34329	-6.29503	2.39526
1098.000	-3.99693	3.42332	-6.50199	2.41205
1099.000	-4.37646	3.40981	-6.72437	2.47999
1100.000	-4.69670	3.34112	-7.00305	2.44307
1101.000	-4.89890	3.35593	-7.16075	2.51907
1102.000	-5.15982	3.39408	-7.32807	2.54965
1103.000	-5.49693	3.38038	-7.57104	2.54430
1104.000	-5.77300	3.33736	-7.76134	2.61988
1105.000	-5.90605	3.27543	-7.96504	2.65792
1106.000	-6.10549	3.30380	-8.15691	2.59771
1107.000	-6.35752	3.30813	-8.25568	2.65600
1108.000	-6.46295	3.30351	-8.50143	2.64255
1109.000	-6.55663	3.34623	-8.77390	2.62887
1110.000	-6.78286	3.33878	-8.80480	2.61492
1111.000	-6.95630	3.31395	-9.02283	2.70747
1112.000	-7.03810	3.33305	-9.21942	2.72165
1113.000	-7.21524	3.32193	-9.40809	2.70256
1114.000	-7.30278	3.32522	-9.38115	2.74586
1115.000	-7.44278	3.33596	-9.48312	2.82139
1116.000	-7.59047	3.30339	-9.64076	2.81618
1117.000	-7.68369	3.33411	-9.81169	2.82452
1118.000	-7.72834	3.37698	-9.85008	2.80268
1119.000	-7.75163	3.31786	-9.84048	2.81645
1120.000	-7.84284	3.34267	-10.00929	2.77005
1121.000	-7.98830	3.30418	-9.99778	2.74082
1122.000	-8.07553	3.35255	-10.11087	2.74768
1123.000	-8.06972	3.34671	-10.14153	2.73961
1124.000	-8.06778	3.41935	-10.17601	2.78229
1125.000	-8.19178	3.33785	-10.21431	2.82688
1126.000	-8.18403	3.35557	-10.29662	2.78123
1127.000	-8.19178	3.35551	-10.23920	2.77393
1128.000	-8.18984	3.40066	-10.27174	2.77364
1129.000	-8.23826	3.36296	-10.25834	2.78938
1130.000	-8.22470	3.35915	-10.27174	2.82051
1131.000	-8.22664	3.33559	-10.28705	2.79694
1132.000	-8.23051	3.35126	-10.31193	2.79086
1133.000	-8.22858	3.31791	-10.33298	2.80630
1134.000	-8.20921	3.30826	-10.30428	2.82217
1135.000	-8.28666	3.27426	-10.29662	2.71679
1136.000	-8.20534	3.26708	-10.34064	2.78475
1137.000	-8.21115	3.35142	-10.32341	2.76342
1138.000	-8.22858	3.32576	-10.31576	2.79278
1139.000	-8.22277	3.30619	-10.35020	2.82762
1140.000	-8.20340	3.34560	-10.33872	2.77500
1141.000	-8.23632	3.35513	-10.34255	2.77497
1142.000	-8.22470	3.34149	-10.35403	2.76315
1143.000	-8.23245	3.35320	-10.30619	2.80653
1144.000	-8.24988	3.34717	-10.34064	2.82185
1145.000	-8.26343	3.32940	-10.34064	2.80037
1146.000	-8.21696	3.38080	-10.33681	2.86093
1147.000	-8.28860	3.32330	-10.37125	2.80205
1148.000	-8.26343	3.31762	-10.38272	2.83904
1149.000	-8.27117	3.33914	-10.31767	2.81619
1150.000	-8.23632	3.37083	-10.37316	2.84303
1151.000	-8.25762	3.38438	-10.36551	2.81186
1152.000	-8.26537	3.34311	-10.33490	2.86485
1153.000	-8.24407	3.42766	-10.37507	2.86448
1154.000	-8.21889	3.39452	-10.31959	2.86499
1155.000	-8.22664	3.46705	-10.36742	2.93678
1156.000	-8.18790	3.42030	-10.32341	2.86691
1157.000	-8.19565	3.37706	-10.36168	2.91731
1158.000	-8.22470	3.39447	-10.31193	2.88458
1159.000	-8.24988	3.38641	-10.34638	2.89988
1160.000	-8.20146	3.45942	-10.37890	2.88982
1161.000	-8.22858	3.40033	-10.30236	2.90419
1162.000	-8.16272	3.38323	-10.31959	2.93527
1163.000	-8.20727	3.43190	-10.32533	2.85322
1164.000	-8.20534	3.41034	-10.33681	2.87655
1165.000	-8.18984	3.45756	-10.32916	2.88247
1166.000	-8.13754	3.42661	-10.35211	2.84712
1167.000	-8.17628	3.44394	-10.32916	2.86685
1168.000	-8.13560	3.49923	-10.28705	2.89262
1169.000	-8.12785	3.50715	-10.36551	2.86457
1170.000	-8.10848	3.51320	-10.28897	2.88870
1171.000	-8.15110	3.47751	-10.33107	2.88050
1172.000	-8.11429	3.52689	-10.32533	2.83175
1173.000	-8.17628	3.41843	-10.31385	2.88652
1174.000	-8.02902	3.58650	-10.31767	2.84548
1175.000	-8.11429	3.50727	-10.30236	2.93543
1176.000	-8.08135	3.55661	-10.28131	2.90439
1177.000	-8.05228	3.52547	-10.28897	2.87308
1178.000	-8.10654	3.44650	-10.22197	2.85806
1179.000	-8.11429	3.57201	-10.27557	2.91811
1180.000	-8.07553	3.60767	-10.25068	2.86952
1181.000	-8.07359	3.54490	-10.25260	2.87927
1182.000	-8.06778	3.54692	-10.27174	2.89666
1183.000	-8.04065	3.56089	-10.27557	2.88882
1184.000	-8.05228	3.58433	-10.28897	2.88674
1185.000	-8.06197	3.53127	-10.27174	2.89081
1186.000	-8.05421	3.50582	-10.21048	2.94409
1187.000	-8.10072	3.59371	-10.29088	2.90430
1188.000	-8.07553	3.57432	-10.32533	2.87860
1189.000	-8.03871	3.57072	-10.25643	2.87728
1190.000	-8.07553	3.61944	-10.25643	2.94562
1191.000	-8.03289	3.52171	-10.27940	2.94345
1192.000	-8.05421	3.60197	-10.23920	2.93406
1193.000	-7.98249	3.56140	-10.26217	2.93385
1194.000	-8.07166	3.52726	-10.29662	2.89839
1195.000	-8.07941	3.57428	-10.26983	2.91230
1196.000	-8.04258	3.61385	-10.28897	2.93360
1197.000	-8.01738	3.60230	-10.33298	2.93905
1198.000	-7.97861	3.63796	-10.33872	2.88629
1199.000	-8.02320	3.63953	-10.34064	2.91360
1200.000	-8.03095	3.63357	-10.32724	2.94496
1201.000	-8.05034	3.57062	-10.38272	2.89174
1202.000	-8.07166	3.58612	-10.39994	2.94818
1203.000	-8.01157	3.58469	-10.41524	2.90315
1204.000	-8.02514	3.58065	-10.45157	2.90086
1205.000	-8.07359	3.54883	-10.39611	2.93455
1206.000	-8.00769	3.59650	-10.38081	2.95031
1207.000	-8.01157	3.60628	-10.34446	2.97212
1208.000	-8.04452	3.59029	-10.40185	2.98914
1209.000	-8.03871	3.60996	-10.41332	2.91878
1210.000	-8.04646	3.53925	-10.36742	2.99923
1211.000	-7.99412	3.54756	-10.37698	3.02256
1212.000	-8.10072	3.52701	-10.42289	2.96357
1213.000	-8.06778	3.57439	-10.35211	3.00328
1214.000	-8.05228	3.58826	-10.37507	2.99525
1215.000	-8.01351	3.54543	-10.36359	3.06562
1216.000	-8.05228	3.57452	-10.31959	3.02506
1217.000	-8.06003	3.58034	-10.36933	3.05971
1218.000	-8.06390	3.56657	-10.35977	3.05980
1219.000	-8.01738	3.62977	-10.38464	2.98540
1220.000	-8.03095	3.58648	-10.40950	2.97151
1221.000	-8.08135	3.59781	-10.36742	3.01289
1222.000	-8.06778	3.55673	-10.33298	3.03664
1223.000	-8.03871	3.52755	-10.36742	3.03436
1224.000	-8.00188	3.59066	-10.35977	2.98174
1225.000	-8.09297	3.57220	-10.41141	2.98125
1226.000	-7.99024	3.53385	-10.36551	2.98364
1227.000	-8.05228	3.56079	-10.34829	3.02088
1228.000	-8.02320	3.62187	-10.37316	3.05382
1229.000	-7.95922	3.68719	-10.33681	3.05417
1230.000	-7.95922	3.65776	-10.30811	3.04469
1231.000	-8.03289	3.58843	-10.32341	3.04844
1232.000	-7.99606	3.61426	-10.36933	3.04410
1233.000	-8.04065	3.56874	-10.38272	3.05567
1234.000	-8.03677	3.62764	-10.34064	3.06584
1235.000	-8.00769	3.62986	-10.36168	3.04612
1236.000	-8.03483	3.61588	-10.40185	2.97353
1237.000	-7.96698	3.66554	-10.38272	2.95225
1238.000	-8.03677	3.63156	-10.40376	2.99693
1239.000	-8.05809	3.56466	-10.38655	3.01271
1240.000	-7.99994	3.61227	-10.44583	2.99653
1241.000	-7.99606	3.62407	-10.32724	3.06012
1242.000	-7.99412	3.62017	-10.39994	2.99306
1243.000	-8.02514	3.58653	-10.33298	3.03664
1244.000	-7.92819	3.56579	-10.35403	3.04229
1245.000	-8.03095	3.61788	-10.33107	3.04252
1246.000	-8.02902	3.59631	-10.41332	3.01635
1247.000	-7.99024	3.65552	-10.32341	3.02112
1248.000	-8.08135	3.62135	-10.37698	2.97767
1249.000	-8.05034	3.60005	-10.34829	2.99941
1250.000	-8.06778	3.64502	-10.31002	3.01930
1251.000	-8.05421	3.61178	-10.37698	3.05963
1252.000	-8.02514	3.58850	-10.35403	2.97399
1253.000	-8.04258	3.59815	-10.37316	2.94843
1254.000	-8.08328	3.62918	-10.34446	3.00530
1255.000	-8.06390	3.57050	-10.38846	2.99903
1256.000	-8.04065	3.61975	-10.37316	2.96990
1257.000	-8.11429	3.61910	-10.38272	2.95420
1258.000	-8.03871	3.63547	-10.36551	3.05974
1259.000	-8.08716	3.62915	-10.35594	3.03252
1260.000	-8.04065	3.63545	-10.40185	2.96182
1261.000	-8.08910	3.63698	-10.43053	2.96740
1262.000	-8.02514	3.55121	-10.40759	2.97348
1263.000	-8.05421	3.63337	-10.36551	3.01096
1264.000	-8.10072	3.59175	-10.36168	2.99733
1265.000	-8.09685	3.69771	-10.39229	2.97948
1266.000	-8.02514	3.66502	-10.34255	2.99752
1267.000	-8.13366	3.61107	-10.33107	3.04642
1268.000	-8.06778	3.58812	-10.32916	2.98984
1269.000	-8.11235	3.57988	-10.31959	3.00554
1270.000	-8.06390	3.68232	-10.36742	3.01484
1271.000	-8.06390	3.66271	-10.38272	3.02055
1272.000	-8.12398	3.62097	-10.36551	3.01486
1273.000	-8.05421	3.69614	-10.32341	2.97232
1274.000	-8.10266	3.66236	-10.38272	2.98347
1275.000	-8.07166	3.64106	-10.40376	3.01644
1276.000	-8.10654	3.60739	-10.39420	3.03800
1277.000	-8.08716	3.59972	-10.35594	3.01886
1278.000	-8.12591	3.64057	-10.38081	3.04398
1279.000	-8.08135	3.66059	-10.36933	3.08898
1280.000	-8.06003	3.61958	-10.39802	3.04577
1281.000	-8.06778	3.71171	-10.39611	2.97749
1282.000	-8.05421	3.63140	-10.33490	3.05028
1283.000	-8.03095	3.69243	-10.38464	3.02834
1284.000	-8.07941	3.62333	-10.34638	3.06579
1285.000	-8.10072	3.65060	-10.36742	3.03826
1286.000	-8.10654	3.59955	-10.35785	3.03250
1287.000	-8.08328	3.65076	-10.34446	3.06385
1288.000	-8.11041	3.67405	-10.34638	2.98967
1289.000	-8.11235	3.59950	-10.36359	3.05781
1290.000	-8.14335	3.64629	-10.38846	2.99708
1291.000	-8.16272	3.59708	-10.37125	2.97773
1292.000	-8.19565	3.59090	-10.40567	3.00277
1293.000	-8.09879	3.62120	-10.33681	3.02685
1294.000	-8.12979	3.59542	-10.40567	3.04960
1295.000	-8.15304	3.60305	-10.37507	3.04404
1296.000	-8.14529	3.62274	-10.37890	2.97375
1297.000	-8.13173	3.59148	-10.41141	3.05735
1298.000	-8.13173	3.64248	-10.39420	2.99117
1299.000	-8.19953	3.56537	-10.36551	3.00901
1300.000	-8.19372	3.61642	-10.39994	3.03599
1301.000	-8.12010	3.66024	-10.35403	3.06961
1302.000	-8.17435	3.62836	-10.40759	3.07884
1303.000	-8.15110	3.64819	-10.38655	3.02637
1304.000	-8.14916	3.68743	-10.39994	2.99111
1305.000	-8.13560	3.64636	-10.33107	3.06203
1306.000	-8.07166	3.67833	-10.41524	3.02024
1307.000	-8.13754	3.63458	-10.36359	3.00122
1308.000	-8.13754	3.62085	-10.39420	3.10044
1309.000	-8.11816	3.66025	-10.39420	3.03020
1310.000	-8.12979	3.70526	-10.44583	3.02384
1311.000	-8.10460	3.65645	-10.41715	3.01436
1312.000	-8.07166	3.77052	-10.44201	2.98876
1313.000	-8.04065	3.73354	-10.40567	3.00472
1314.000	-8.12204	3.73867	-10.39611	3.04969
1315.000	-8.05421	3.72557	-10.41524	3.04950
1316.000	-8.02708	3.74739	-10.39802	2.98528
1317.000	-8.02902	3.71599	-10.38081	3.08691
1318.000	-8.07359	3.78423	-10.39802	3.03991
1319.000	-8.07166	3.66656	-10.45348	3.00035
1320.000	-8.06003	3.64705	-10.43245	3.02787
1321.000	-8.05421	3.70203	-10.40759	2.96957
1322.000	-8.03289	3.74538	-10.42671	2.99086
1323.000	-8.03289	3.74930	-10.43436	3.00054
1324.000	-8.10460	3.74471	-10.42480	2.96356
1325.000	-8.01738	3.72983	-10.38272	3.00299
1326.000	-8.01157	3.69457	-10.45157	3.02183
1327.000	-8.07553	3.72341	-10.47069	3.00409
1328.000	-8.06003	3.72355	-10.47069	3.00799
1329.000	-8.06197	3.72157	-10.43436	2.99273
1330.000	-8.09491	3.73304	-10.50127	3.06036
1331.000	-8.09879	3.69966	-10.47833	3.01767
1332.000	-8.06584	3.70781	-10.49745	3.01749
1333.000	-8.05615	3.70789	-10.50318	3.03499
1334.000	-8.05809	3.70984	-10.50127	3.02330
1335.000	-8.03289	3.71595	-10.51656	3.03095
1336.000	-8.06584	3.73527	-10.47451	3.04697
1337.000	-8.00963	3.77501	-10.45157	3.05110
1338.000	-8.09491	3.76638	-10.43436	3.02005
1339.000	-8.04840	3.72366	-10.44010	3.07852
1340.000	-8.09104	3.76837	-10.39037	3.04779
1341.000	-8.08522	3.75470	-10.46495	2.99634
1342.000	-8.05809	3.73141	-10.52038	3.05237
1343.000	-8.05809	3.71965	-10.50127	3.05841
1344.000	-8.09879	3.78203	-10.41524	3.01048
1345.000	-8.08716	3.79587	-10.47642	3.03720
1346.000	-8.02514	3.74349	-10.45157	3.02379
1347.000	-8.06584	3.75488	-10.43053	3.08642
1348.000	-8.02902	3.81602	-10.48598	3.04101
1349.000	-8.06972	3.81564	-10.47451	3.06648
1350.000	-8.05809	3.85105	-10.42862	3.01425
1351.000	-8.08716	3.79390	-10.47833	3.02743
1352.000	-8.10266	3.81141	-10.42671	2.98305
1353.000	-8.12979	3.73664	-10.44583	3.09602
1354.000	-8.09879	3.82125	-10.41524	3.02024
1355.000	-8.14335	3.79338	-10.38081	3.05374
1356.000	-8.12010	3.72104	-10.39229	3.01265
1357.000	-8.11816	3.81322	-10.43053	2.99862
1358.000	-8.10266	3.74473	-10.40950	3.03785
1359.000	-8.10848	3.72507	-10.37698	3.05378
1360.000	-8.16660	3.75786	-10.42097	3.03384
1361.000	-8.09491	3.79971	-10.41524	3.06121
1362.000	-8.06972	3.81172	-10.37890	3.04010
1363.000	-8.12398	3.78768	-10.40376	3.03791
1364.000	-8.17241	3.74016	-10.33872	3.01512
1365.000	-8.14529	3.76983	-10.37507	3.06746
1366.000	-8.11623	3.74853	-10.36359	3.05001
1367.000	-8.13560	3.74050	-10.37890	3.01864
1368.000	-8.12398	3.73669	-10.38846	2.99122
1369.000	-8.12204	3.72102	-10.37125	3.01676
1370.000	-8.17241	3.69114	-10.41715	3.00851
1371.000	-8.16079	3.69713	-10.32724	3.02889
1372.000	-8.18209	3.74399	-10.35977	3.05395
1373.000	-8.10072	3.76044	-10.43436	3.04737
1374.000	-8.16079	3.70301	-10.37316	2.99917
1375.000	-8.13560	3.76404	-10.44966	3.04136
1376.000	-8.12398	3.70923	-10.33681	3.03465
1377.000	-8.12010	3.70142	-10.40185	3.01256
1378.000	-8.15304	3.74819	-10.48407	3.05663
1379.000	-8.15497	3.80307	-10.30045	3.08770
1380.000	-8.12010	3.73476	-10.40759	3.05738
1381.000	-8.10266	3.77415	-10.39994	3.10428
1382.000	-8.08328	3.71745	-10.34446	3.09898
1383.000	-8.11816	3.76420	-10.36933	3.07727
1384.000	-8.08328	3.72726	-10.42097	3.07091
1385.000	-8.12010	3.71908	-10.36168	3.05588
1386.000	-8.12591	3.76609	-10.37698	3.09085
1387.000	-8.12204	3.70729	-10.38655	3.13954
1388.000	-8.11816	3.74655	-10.38272	3.09080
1389.000	-8.12591	3.72098	-10.38081	3.17276
1390.000	-8.13948	3.72282	-10.36933	3.15141
1391.000	-8.11429	3.77404	-10.39420	3.19993
1392.000	-8.10654	3.70939	-10.33107	3.19082
1393.000	-8.11816	3.74851	-10.38272	3.17469
1394.000	-8.07359	3.76461	-10.37507	3.22549
1395.000	-8.13754	3.75617	-10.39994	3.11599
1396.000	-8.12204	3.80338	-10.37890	3.21375
1397.000	-8.15885	3.78539	-10.36742	3.13778
1398.000	-8.11235	3.72503	-10.36359	3.14562
1399.000	-8.10266	3.78788	-10.37507	3.13770
1400.000	-8.10266	3.75650	-10.34255	3.17315
1401.000	-8.14529	3.76395	-10.37316	3.14942
1402.000	-8.15497	3.77954	-10.35403	3.11645
1403.000	-8.11041	3.81918	-10.39420	3.15702
1404.000	-8.15304	3.76975	-10.44201	3.09606
1405.000	-8.12979	3.74840	-10.37316	3.11821
1406.000	-8.12979	3.79154	-10.45348	3.12911
1407.000	-8.16272	3.81672	-10.43627	3.09417
1408.000	-8.15304	3.80505	-10.48598	3.07417
1409.000	-8.15304	3.78740	-10.43245	3.12737
1410.000	-8.10266	3.73689	-10.43627	3.14489
1411.000	-8.12979	3.76409	-10.41906	3.15677
1412.000	-8.12010	3.80928	-10.40567	3.08862
1413.000	-8.12204	3.74651	-10.38081	3.14154
1414.000	-8.17241	3.68525	-10.38272	3.12787
1415.000	-8.16272	3.70691	-10.43245	3.15078
1416.000	-8.13560	3.75227	-10.47451	3.19326
1417.000	-8.11429	3.75247	-10.44010	3.19166
1418.000	-8.09491	3.71342	-10.41715	3.17044
1419.000	-8.12591	3.79550	-10.36551	3.22364
1420.000	-8.12204	3.73671	-10.44583	3.15649
1421.000	-8.15110	3.78350	-10.33298	3.21812
1422.000	-8.13948	3.74439	-10.46113	3.12123
1423.000	-8.14916	3.74038	-10.44583	3.17795
1424.000	-8.10654	3.76431	-10.41332	3.20559
1425.000	-8.20727	3.86726	-10.41524	3.20167
1426.000	-8.14335	3.82083	-10.43818	3.10195
1427.000	-8.10460	3.72118	-10.42097	3.11188
1428.000	-8.10848	3.78194	-10.45539	3.14079
1429.000	-8.07747	3.85478	-10.49554	3.11308
1430.000	-8.08328	3.82728	-10.44774	3.14477
1431.000	-8.11816	3.80538	-10.46495	3.11924
1432.000	-8.12979	3.86017	-10.48216	3.12687
1433.000	-8.04258	3.81786	-10.44392	3.10970
1434.000	-8.11623	3.75049	-10.48980	3.11704
1435.000	-8.04258	3.85708	-10.55287	3.08520
1436.000	-8.03871	3.84535	-10.51274	3.15191
1437.000	-8.01932	3.86710	-10.50700	3.07396
1438.000	-8.05034	3.83543	-10.50700	3.07006
1439.000	-8.03095	3.85523	-10.47451	3.10159
1440.000	-8.00769	3.84760	-10.48980	3.10534
1441.000	-8.00575	3.93782	-10.51465	3.02122
1442.000	-8.06778	3.82350	-10.54140	3.01901
1443.000	-8.01157	3.89855	-10.43245	3.10981
1444.000	-8.01351	3.85539	-10.51083	3.07392
1445.000	-8.02514	3.86509	-10.50700	3.09736
1446.000	-8.00188	3.93590	-10.51274	3.06220
1447.000	-7.99218	3.86932	-10.55096	3.04622
1448.000	-8.02514	3.88470	-10.53567	3.09708
1449.000	-8.05034	3.90602	-10.52803	3.08740
1450.000	-8.02320	3.85922	-10.54522	3.10088
1451.000	-8.01157	3.89659	-10.53567	3.02101
1452.000	-7.97085	3.88913	-10.51465	3.08949
1453.000	-8.06003	3.87260	-10.54714	3.06186
1454.000	-7.99800	3.92025	-10.59681	3.04771
1455.000	-8.03289	3.86501	-10.49745	3.05455
1456.000	-8.07166	3.89013	-10.52803	3.02694
1457.000	-8.03483	3.94343	-10.52803	3.01914
1458.000	-8.07747	3.87047	-10.55669	3.08907
1459.000	-7.99218	3.91442	-10.52994	3.05813
1460.000	-7.97861	3.91848	-10.57579	3.08107
1461.000	-8.07747	3.91753	-10.52038	3.02897
1462.000	-8.05615	3.91577	-10.57770	3.07521
1463.000	-8.02126	3.88277	-10.52612	3.09717
1464.000	-7.99606	3.89870	-10.50509	3.06033
1465.000	-8.00575	3.90645	-10.50127	3.12278
1466.000	-7.99994	3.82610	-10.48789	3.08585
1467.000	-8.06584	3.89999	-10.46877	3.14066
1468.000	-8.04258	3.82178	-10.53185	3.07566
1469.000	-8.03483	3.91402	-10.52612	3.10302
1470.000	-8.03677	3.90615	-10.47451	3.13670
1471.000	-8.01351	3.94559	-10.49936	3.09744
1472.000	-8.10266	3.85847	-10.49745	3.15987
1473.000	-8.05228	3.94130	-10.46113	3.18950
1474.000	-8.07941	3.92731	-10.51656	3.13432
1475.000	-8.10072	3.88005	-10.53949	3.13019
1476.000	-8.08328	3.87826	-10.50127	3.15983
1477.000	-8.06197	3.92160	-10.52038	3.17524
1478.000	-8.10848	3.75841	-10.48407	3.18536
1479.000	-8.10266	3.78984	-10.50509	3.18904
1480.000	-8.12398	3.83081	-10.49171	3.15798
1481.000	-8.11429	3.83875	-10.48216	3.12297
1482.000	-8.09879	3.85458	-10.54905	3.11839
1483.000	-8.10072	3.86241	-10.44774	3.14867
1484.000	-8.12785	3.86607	-10.47069	3.22840
1485.000	-8.09297	3.80562	-10.43627	3.17610
1486.000	-8.14916	3.78548	-10.43245	3.14493
1487.000	-8.16466	3.81278	-10.47451	3.15230
1488.000	-8.08716	3.86646	-10.42097	3.21331
1489.000	-8.12010	3.84261	-10.47260	3.17573
1490.000	-8.12398	3.82101	-10.42671	3.22886
1491.000	-8.11623	3.77794	-10.49362	3.17746
1492.000	-8.12204	3.81318	-10.43627	3.19365
1493.000	-8.14529	3.88158	-10.42289	3.17623
1494.000	-8.15110	3.79722	-10.41715	3.18800
1495.000	-8.15885	3.80891	-10.49171	3.17163
1496.000	-8.17822	3.83030	-10.39994	3.22523
1497.000	-8.17822	3.79893	-10.44966	3.14865
1498.000	-8.14723	3.82471	-10.44392	3.22088
1499.000	-8.17435	3.80289	-10.43053	3.18201
1500.000	-8.18209	3.79301	-10.44966	3.17986
1501.000	-8.14141	3.80516	-10.45348	3.11350
1502.000	-8.09104	3.77230	-10.44392	3.19942
1503.000	-8.15691	3.80305	-10.45157	3.17204
1504.000	-8.17047	3.82449	-10.39420	3.15897
1505.000	-8.12785	3.77195	-10.45922	3.17976
1506.000	-8.18209	3.87338	-10.45157	3.18959
1507.000	-8.14916	3.77960	-10.48598	3.22044
1508.000	-8.10654	3.88980	-10.45730	3.20319
1509.000	-8.12204	3.90729	-10.46686	3.16213
1510.000	-8.07359	3.82541	-10.44774	3.14087
1511.000	-8.07166	3.92542	-10.52038	3.22593
1512.000	-8.06003	3.95690	-10.49936	3.13645
1513.000	-8.09879	3.92320	-10.56433	3.12409
1514.000	-8.13366	3.88169	-10.55669	3.17876
1515.000	-8.15304	3.92855	-10.59299	3.12965
1516.000	-8.28473	3.89982	-10.71137	3.08555
1517.000	-8.44921	3.86096	-10.73618	3.14572
1518.000	-8.55944	3.79522	-10.87734	3.11502
1519.000	-8.73141	3.86984	-10.99931	3.11374
1520.000	-8.87043	3.84100	-11.19540	3.09804
1521.000	-8.96690	3.85759	-11.25056	3.06826
1522.000	-9.10381	3.92457	-11.36652	3.08647
1523.000	-9.13657	3.89879	-11.51846	3.08482
1524.000	-9.30030	3.90481	-11.58298	3.14046
1525.000	-9.47927	3.85006	-11.74416	3.18525
1526.000	-9.59463	3.80580	-11.92975	3.05889
1527.000	-9.74449	3.83729	-12.06972	3.05924
1528.000	-9.84624	3.82246	-12.17555	3.07160
1529.000	-9.96519	3.81718	-12.25298	3.14437
1530.000	-10.01504	3.84000	-12.36621	3.19338
1531.000	-10.08596	3.89375	-12.42090	3.19078
1532.000	-10.06680	3.93492	-12.53775	3.14481
1533.000	-10.11662	3.86999	-12.56412	3.14255
1534.000	-10.09171	3.93267	-12.58296	3.15975
1535.000	-10.20090	3.84363	-12.64320	3.11836
1536.000	-10.23154	3.87444	-12.66014	3.14912
1537.000	-10.23728	3.81980	-12.57354	3.14438
1538.000	-10.28131	3.80173	-12.59237	3.08801
1539.000	-10.35211	3.74048	-12.69025	3.04231
1540.000	-10.28323	3.79002	-12.65450	3.05048
1541.000	-10.39037	3.77509	-12.68461	3.07335
1542.000	-10.40950	3.74174	-12.68837	3.05201
1543.000	-10.41906	3.67733	-12.81814	3.09301
1544.000	-10.47642	3.75068	-12.81626	3.10657
1545.000	-10.45539	3.75093	-12.82754	3.04067
1546.000	-10.46686	3.70988	-12.82190	3.09296
1547.000	-10.51274	3.78919	-12.84257	3.10624
1548.000	-10.47642	3.74094	-12.79934	3.08743
1549.000	-10.46686	3.78780	-12.86512	3.13304
1550.000	-10.48598	3.79146	-12.82190	3.19353
1551.000	-10.50127	3.88280	-12.85197	3.12160
1552.000	-10.49171	3.80503	-12.82378	3.14516
1553.000	-10.42097	3.73576	-12.79934	3.10678
1554.000	-10.46304	3.85602	-12.84633	3.17775
1555.000	-10.47451	3.74875	-12.87264	3.13681
1556.000	-10.47260	3.80137	-12.88203	3.17150
1557.000	-10.46113	3.78008	-12.80874	3.12600
1558.000	-10.52803	3.80848	-12.88955	3.19847
1559.000	-10.53376	3.75972	-12.75233	3.18473
1560.000	-10.53185	3.77532	-12.81814	3.19938
1561.000	-10.53376	3.83956	-12.85948	3.15245
1562.000	-10.53949	3.83754	-12.81814	3.13169
1563.000	-10.56815	3.82940	-12.82566	3.16641
1564.000	-10.53185	3.75780	-12.78806	3.24811
1565.000	-10.52994	3.80845	-12.78242	3.23851
1566.000	-10.55096	3.82377	-12.81062	3.18400
1567.000	-10.57197	3.76899	-12.88579	3.23718
1568.000	-10.54714	3.78682	-12.92148	3.15553
1569.000	-10.53376	3.83567	-12.88767	3.27002
1570.000	-10.56433	3.76714	-12.83505	3.23590
1571.000	-10.51847	3.75406	-12.85009	3.16610
1572.000	-10.56051	3.75745	-12.80686	3.22659
1573.000	-10.57579	3.84293	-12.85948	3.21625
1574.000	-10.49745	3.85754	-12.84633	3.23962
1575.000	-10.53567	3.84732	-12.78994	3.29063
1576.000	-10.54714	3.85692	-12.84069	3.20683
1577.000	-10.51465	3.82617	-12.90457	3.24854
1578.000	-10.52803	3.82990	-12.82190	3.26701
1579.000	-10.48789	3.88492	-12.83693	3.26681
1580.000	-10.48216	3.88304	-12.82190	3.19933
1581.000	-10.49362	3.83616	-12.84821	3.21253
1582.000	-10.52994	3.86492	-12.82941	3.19343
1583.000	-10.49171	3.80503	-12.82190	3.25541
1584.000	-10.53758	3.85509	-12.85197	3.24148
1585.000	-10.46686	3.83455	-12.86136	3.18916
1586.000	-10.52229	3.82802	-12.90457	3.11708
1587.000	-10.52420	3.76957	-12.91021	3.24073
1588.000	-10.52803	3.79484	-12.89330	3.19842
1589.000	-10.49745	3.78548	-12.90645	3.18665
1590.000	-10.51465	3.89626	-12.82002	3.12973
1591.000	-10.49362	3.80500	-12.91209	3.18852
1592.000	-10.54140	3.86283	-12.84633	3.16421
1593.000	-10.51465	3.83980	-12.95904	3.12413
1594.000	-10.53567	3.81812	-12.88391	3.21401
1595.000	-10.53758	3.87651	-12.82754	3.12770
1596.000	-10.54714	3.80629	-12.85385	3.16412
1597.000	-10.43053	3.81941	-12.85197	3.16221
1598.000	-10.53758	3.83951	-12.92899	3.14577
1599.000	-10.53376	3.85514	-12.88955	3.14433
1600.000	-10.44392	3.84262	-12.89518	3.10559
1601.000	-10.48024	3.86165	-12.92336	3.16131
1602.000	-10.52612	3.80850	-12.96467	3.15112
1603.000	-10.48598	3.80120	-12.88579	3.18112
1604.000	-10.49554	3.83030	-12.94026	3.12437
1605.000	-10.51847	3.78522	-12.94965	3.18417
1606.000	-10.48024	3.84607	-12.88203	3.13476
1607.000	-10.51847	3.79107	-12.89518	3.13846
1608.000	-10.53567	3.82980	-12.90833	3.11703
1609.000	-10.50127	3.80296	-12.94026	3.15723
1610.000	-10.50127	3.85944	-12.89142	3.18105
1611.000	-10.49554	3.83809	-12.92336	3.20384
1612.000	-10.51465	3.94494	-12.90082	3.17513
1613.000	-10.45922	3.83659	-12.89142	3.14624
1614.000	-10.48024	3.80322	-12.95340	3.13773
1615.000	-10.40567	3.90152	-12.87639	3.18704
1616.000	-10.50700	3.84963	-12.84821	3.25507
1617.000	-10.48024	3.82854	-12.97969	3.15286
1618.000	-10.44010	3.88551	-12.87827	3.22375
1619.000	-10.52420	3.84552	-12.92148	3.21739
1620.000	-10.47260	3.90458	-12.89142	3.16365
1621.000	-10.46304	3.90860	-12.93087	3.22500
1622.000	-10.50700	3.85352	-12.91209	3.17692
1623.000	-10.45730	3.88530	-12.85760	3.16407
1624.000	-10.44966	3.92434	-12.88767	3.18496
1625.000	-10.44774	3.88931	-12.86888	3.23160
1626.000	-10.40950	3.90148	-12.89706	3.19837
1627.000	-10.47642	3.94737	-12.91772	3.17491
1628.000	-10.40185	3.94637	-12.95904	3.22077
1629.000	-10.49745	3.91985	-12.90269	3.21957
1630.000	-10.40376	3.98918	-12.82754	3.24953
1631.000	-10.39037	3.99714	-12.90269	3.18670
1632.000	-10.42671	3.97137	-12.86888	3.30313
1633.000	-10.38464	3.97190	-12.87264	3.24508
1634.000	-10.44392	3.94194	-12.88955	3.30479
1635.000	-10.43627	3.96735	-12.91960	3.18649
1636.000	-10.41524	3.93256	-12.91584	3.25999
1637.000	-10.44010	3.98288	-12.89142	3.22744
1638.000	-10.40185	3.96389	-12.88015	3.19666
1639.000	-10.44201	3.94391	-12.89330	3.17715
1640.000	-10.42097	3.90133	-12.86512	3.22198
1641.000	-10.39994	3.97755	-12.90269	3.23116
1642.000	-10.43053	3.97716	-12.85197	3.23182
1643.000	-10.40759	4.04365	-12.84445	3.22031
1644.000	-10.42862	3.96355	-12.88203	3.14636
1645.000	-10.43627	4.00240	-12.88391	3.24880
1646.000	-10.41332	4.00269	-12.85009	3.25311
1647.000	-10.44774	3.98473	-12.85760	3.20081
1648.000	-10.43053	4.00052	-12.90457	3.20988
1649.000	-10.44583	3.94776	-12.78806	3.19589
1650.000	-10.45157	3.93405	-12.88579	3.20625
1651.000	-10.44392	3.98672	-12.89518	3.19066
1652.000	-10.46495	3.92220	-12.85009	3.20864
1653.000	-10.48980	3.96862	-12.85385	3.18926
1654.000	-10.44583	3.92439	-12.81062	3.23815
1655.000	-10.42671	3.95968	-12.89706	3.25443
1656.000	-10.48980	3.94525	-12.88579	3.21205
1657.000	-10.48216	3.92977	-12.86512	3.13497
1658.000	-10.49936	3.89840	-12.86136	3.18723
1659.000	-10.44583	3.95555	-12.93838	3.16112
1660.000	-10.50892	3.93528	-12.96279	3.18400
1661.000	-10.47069	3.93576	-12.96467	3.16658
1662.000	-10.43245	3.91677	-12.93275	3.18825
1663.000	-10.49362	3.90237	-12.93275	3.19985
1664.000	-10.58535	3.98101	-12.97593	3.10459
1665.000	-10.46686	3.93776	-12.95528	3.12804
1666.000	-10.43436	3.99853	-13.02849	3.10780
1667.000	-10.47833	3.94735	-13.03412	3.11353
1668.000	-10.46877	3.95136	-13.00784	3.07713
1669.000	-10.50318	3.96844	-13.01160	3.07129
1670.000	-10.48216	4.00375	-12.96091	3.09705
1671.000	-10.45730	3.94177	-12.97030	3.07373
1672.000	-10.43245	3.96156	-12.96467	3.05254
1673.000	-10.44966	3.97107	-13.03412	3.07681
1674.000	-10.51274	3.98000	-13.00784	3.03268
1675.000	-10.49745	3.97436	-13.04350	3.02451
1676.000	-10.44010	3.93809	-13.05475	3.06109
1677.000	-10.45157	3.95547	-13.03224	3.06717
1678.000	-10.48407	3.92391	-13.00221	3.08494
1679.000	-10.44392	3.99841	-12.99846	3.10431
1680.000	-10.42480	3.97529	-13.08102	3.02985
1681.000	-10.46113	3.98066	-13.05288	3.06691
1682.000	-10.42480	3.94997	-13.06601	3.02424
1683.000	-10.45539	3.99826	-13.08289	3.00471
1684.000	-10.48789	3.97448	-13.06414	3.02233
1685.000	-10.45348	3.99050	-13.00409	3.06752
1686.000	-10.45348	4.01970	-13.05100	3.05534
1687.000	-10.45348	4.00802	-13.04350	3.00518
1688.000	-10.43627	3.94398	-13.04537	3.05734
1689.000	-10.46877	4.03118	-13.05475	3.08042
1690.000	-10.44392	3.98283	-12.98907	2.98071
1691.000	-10.43053	4.00052	-13.01535	3.02679
1692.000	-10.41141	4.02219	-13.02849	3.01890
1693.000	-10.41715	3.98707	-13.08102	3.02599
1694.000	-10.39420	4.00683	-13.00972	3.07131
1695.000	-10.45730	3.99434	-13.01723	3.05769
1696.000	-10.47260	4.03113	-13.11478	3.00432
1697.000	-10.46877	3.93384	-13.03974	3.05161
1698.000	-10.47260	4.01166	-13.00972	3.08871
1699.000	-10.51847	4.04027	-13.03599	3.03040
1700.000	-10.47451	4.03695	-12.98907	3.03097
1701.000	-10.45922	3.94175	-13.05851	2.99147
1702.000	-10.41715	3.98707	-13.01347	3.03261
1703.000	-10.49745	3.95878	-12.90833	3.02422
1704.000	-10.45348	3.99244	-12.97218	3.06404
1705.000	-10.53376	4.00114	-12.99470	3.03284
1706.000	-10.49936	3.98017	-12.95528	3.07198
1707.000	-10.45922	4.03520	-13.02286	3.00930
1708.000	-10.49554	4.00358	-12.94401	3.03732
1709.000	-10.45348	3.96324	-13.02098	3.05185
1710.000	-10.49362	3.99971	-12.92336	3.06271
1711.000	-10.50700	3.99370	-12.95716	3.06616
1712.000	-10.51274	3.95275	-12.98720	3.05226
1713.000	-10.44010	4.00040	-12.91772	3.09951
1714.000	-10.40185	4.02036	-12.94589	3.10496
1715.000	-10.49554	3.95881	-12.94026	3.07410
1716.000	-10.45157	4.00804	-12.94026	3.07024
1717.000	-10.44774	3.95552	-12.91209	3.09765
1718.000	-10.47642	3.96100	-12.95904	3.06807
1719.000	-10.50892	4.03066	-12.91397	3.10729
1720.000	-10.42480	4.06485	-12.96655	3.07378
1721.000	-10.51083	3.93136	-12.84821	3.14679
1722.000	-10.53758	3.94270	-12.93650	3.07802
1723.000	-10.52420	3.95844	-12.99283	3.09278
1724.000	-10.46495	3.97672	-13.00597	3.10615
1725.000	-10.46686	3.99811	-12.90645	3.11512
1726.000	-10.38655	3.96409	-12.92336	3.12264
1727.000	-10.45539	3.97100	-12.91584	3.09374
1728.000	-10.40567	3.98916	-13.00221	3.10813
1729.000	-10.42097	3.94612	-12.95340	3.09907
1730.000	-10.42097	3.92470	-12.90645	3.08225
1731.000	-10.39994	4.01455	-12.94965	3.11265
1732.000	-10.38655	4.01861	-12.97781	3.14129
1733.000	-10.44010	4.03934	-12.97969	3.16639
1734.000	-10.41524	4.02798	-13.00972	3.12350
1735.000	-10.40376	3.96387	-13.04350	3.16172
1736.000	-10.39037	3.93482	-12.97030	3.16265
1737.000	-10.36359	4.04422	-12.94214	3.21133
1738.000	-10.40759	3.99498	-12.94401	3.17458
1739.000	-10.40950	3.97159	-12.94589	3.13203
1740.000	-10.34255	4.00749	-12.96279	3.17241
1741.000	-10.40567	4.03589	-12.97781	3.18574
1742.000	-10.40950	4.02805	-13.00033	3.13328
1743.000	-10.38846	4.02248	-12.95528	3.10678
1744.000	-10.37507	4.01681	-13.05851	3.09776
1745.000	-10.40185	4.07488	-13.08289	3.08780
1746.000	-10.38081	4.04400	-13.02098	3.10403
1747.000	-10.36168	4.01504	-13.10165	3.13586
1748.000	-10.34446	4.05615	-13.06789	3.09958
1749.000	-10.42289	4.07655	-13.14665	3.02904
1750.000	-10.39611	4.01849	-13.09040	3.10895
1751.000	-10.36933	4.04220	-13.09977	3.12236
1752.000	-10.39420	4.03409	-13.07351	3.05506
1753.000	-10.43436	4.07835	-13.09415	3.08572
1754.000	-10.40567	4.06899	-13.11853	3.08735
1755.000	-10.42671	3.96747	-13.15602	3.05984
1756.000	-10.36359	4.05980	-13.10915	3.15701
1757.000	-10.41715	3.90138	-13.03787	3.12701
1758.000	-10.46495	4.04875	-13.11665	3.12215
1759.000	-10.42097	4.00844	-13.14853	3.09663
1760.000	-10.47833	3.98823	-13.07914	3.14387
1761.000	-10.48789	4.05234	-13.11665	3.16078
1762.000	-10.42289	4.05708	-13.06226	3.07646
1763.000	-10.47260	4.02724	-13.06414	3.12667
1764.000	-10.38464	4.01474	-13.02849	3.17543
1765.000	-10.42862	4.01223	-13.00784	3.15831
1766.000	-10.42862	4.01028	-13.03974	3.10573
1767.000	-10.46495	4.00008	-13.09977	3.12622
1768.000	-10.41715	4.01822	-13.08289	3.09552
1769.000	-10.42862	4.00055	-13.00033	3.10815
1770.000	-10.41715	4.06884	-13.11478	3.05455
1771.000	-10.48216	4.01933	-13.08289	3.12257
1772.000	-10.49554	3.96270	-13.08289	3.12837
1773.000	-10.47260	4.09147	-13.06601	3.09187
1774.000	-10.40950	4.09035	-13.12040	3.07767
1775.000	-10.39420	4.01267	-13.04162	3.12696
1776.000	-10.43627	3.95956	-13.05288	3.08624
1777.000	-10.44201	4.01401	-13.07914	3.08398
1778.000	-10.48407	3.98621	-13.13915	3.05618
1779.000	-10.47833	4.01548	-13.05100	3.06114
1780.000	-10.46686	4.07403	-13.06976	3.07830
1781.000	-10.44966	4.05479	-13.10540	3.05853
1782.000	-10.51465	4.02280	-13.12040	3.07573
1783.000	-10.41715	3.94228	-13.08664	3.09741
1784.000	-10.45348	3.99828	-13.09415	3.09538
1785.000	-10.43627	3.99266	-13.07727	3.12264
1786.000	-10.41906	4.06687	-13.18601	3.13671
1787.000	-10.43245	4.01218	-13.03412	3.05362
1788.000	-10.39037	4.06140	-13.08289	3.07234
1789.000	-10.44201	3.98285	-13.05475	3.09394
1790.000	-10.41524	4.02019	-13.02473	3.09239
1791.000	-10.40759	4.01445	-13.07914	3.14387
1792.000	-10.45730	4.00797	-13.05100	3.08046
1793.000	-10.43627	4.02381	-13.05288	3.14421
1794.000	-10.40759	3.99303	-12.97781	3.12776
1795.000	-10.46304	4.00205	-13.04725	3.12882
1796.000	-10.35785	4.03066	-13.04162	3.13662
1797.000	-10.41715	4.05132	-13.03036	3.19473
1798.000	-10.30045	4.06840	-13.02473	3.12717
1799.000	-10.43053	3.97326	-13.07351	3.13428
1800.000	-10.44392	4.02177	-13.01723	3.13113
1801.000	-10.41715	3.97344	-13.02473	3.12524
1802.000	-10.41141	4.08838	-12.98907	3.14695
1803.000	-10.40567	4.04563	-12.99846	3.08691
1804.000	-10.48598	4.02123	-12.97781	3.12003
1805.000	-10.43436	4.06278	-12.95340	3.08554
1806.000	-10.44774	4.00614	-12.94777	3.13007
1807.000	-10.37507	3.99539	-12.98907	3.18560
1808.000	-10.35785	3.93523	-13.00033	3.14874
1809.000	-10.41524	3.99488	-12.98907	3.14888
1810.000	-10.37507	4.01681	-12.99095	3.15465
1811.000	-10.33872	4.06791	-12.98532	3.23589
1812.000	-10.43627	4.02576	-12.93650	3.14181
1813.000	-10.47833	3.99407	-12.98344	3.12576
1814.000	-10.44774	4.05092	-12.96279	3.13955
1815.000	-10.41141	3.99882	-13.00597	3.20278
1816.000	-10.44966	3.96913	-13.00972	3.16021
1817.000	-10.46877	4.05259	-13.09790	3.14750
1818.000	-10.43436	4.01216	-13.01160	3.14280
1819.000	-10.48024	3.98237	-13.04725	3.14235
1820.000	-10.46304	3.96312	-12.93838	3.21717
1821.000	-10.46304	4.00205	-13.00221	3.21442
1822.000	-10.48789	3.96475	-13.06601	3.19427
1823.000	-10.44010	3.96341	-13.03412	3.18116
1824.000	-10.47642	3.98436	-12.96467	3.21490
1825.000	-10.39994	3.98729	-12.97969	3.22244
1826.000	-10.46113	3.99234	-13.01160	3.21430
1827.000	-10.48598	3.91025	-12.97405	3.25150
1828.000	-10.48598	3.94141	-12.93087	3.24046
1829.000	-10.47451	3.96492	-12.95340	3.23051
1830.000	-10.45348	3.91066	-12.84257	3.28801
1831.000	-10.42097	3.90718	-12.83693	3.27841
1832.000	-10.25834	3.95790	-12.83693	3.21461
1833.000	-10.04571	3.95858	-12.60555	3.27172
1834.000	-9.77521	3.92671	-12.21899	3.34440
1835.000	-9.67534	3.90250	-11.98651	3.37057
1836.000	-9.35613	3.82602	-11.72331	3.31946
1837.000	-9.10188	3.78379	-11.31711	3.23870
1838.000	-8.83182	3.76115	-10.88687	3.26294
1839.000	-8.57877	3.70884	-10.68274	3.13263
1840.000	-8.18790	3.67727	-10.29471	3.12094
1841.000	-8.06972	3.63519	-9.85200	3.10763
1842.000	-7.68951	3.61299	-9.54658	3.05177
1843.000	-7.37668	3.61756	-9.16355	2.86316
1844.000	-7.04394	3.57695	-8.84340	2.89118
1845.000	-6.54102	3.60430	-8.44148	2.83145
1846.000	-6.23251	3.55919	-8.17241	2.74891
1847.000	-5.88257	3.50629	-7.71087	2.72839
1848.000	-5.51456	3.41186	-7.49332	2.74945
1849.000	-5.24021	3.40352	-7.02836	2.65773
1850.000	-4.77131	3.28741	-6.82770	2.64112
1851.000	-4.38825	3.33266	-6.33409	2.61612
1852.000	-3.92413	3.41571	-6.13481	2.62106
1853.000	-3.71156	3.27806	-5.74169	2.49452
1854.000	-3.25065	3.30738	-5.49106	2.36710
1855.000	-3.07327	3.10396	-5.11275	2.36855
1856.000	-2.69859	3.16442	-4.81254	2.34192
1857.000	-2.37697	3.16719	-4.52188	2.27953
1858.000	-1.91105	3.10075	-4.06579	2.24126
1859.000	-1.47452	3.04592	-3.80212	2.19440
1860.000	-1.04769	3.05832	-3.43389	2.02871
1861.000	-0.85796	3.04064	-3.11269	1.95991
1862.000	-0.59506	2.93368	-2.81891	1.97829
1863.000	-0.17991	3.00327	-2.46775	1.83591
1864.000	0.13444	2.89018	-2.28026	1.89970
1865.000	0.38353	2.89012	-1.88933	1.79887
1866.000	0.80261	2.92363	-1.62269	1.76933
1867.000	0.99433	2.82626	-1.40142	1.75758
1868.000	1.38956	2.77228	-1.12477	1.80546
1869.000	1.55354	2.80978	-0.89353	1.69827
1870.000	1.80638	2.80743	-0.78877	1.68441
1871.000	2.08877	2.85654	-0.55552	1.72623
1872.000	2.22301	2.76705	-0.32620	1.74218
1873.000	2.48551	2.81808	-0.17991	1.73028
1874.000	2.62757	2.75631	0.00198	1.70643
1875.000	2.83271	2.81729	0.04349	1.71041
1876.000	3.03975	2.71965	0.20363	1.67064
1877.000	3.11072	2.71352	0.27678	1.68654
1878.000	3.28612	2.67739	0.34399	1.68056
1879.000	3.29401	2.57430	0.40923	1.63483
1880.000	3.37676	2.59391	0.42109	1.59905
1881.000	3.38661	2.56811	0.41714	1.61296
1882.000	3.44374	2.65119	0.35783	1.57719
1883.000	3.47526	2.63327	0.31829	1.58118
1884.000	3.41025	2.59778	0.30643	1.58913
1885.000	3.48708	2.67683	0.28864	1.53943
1886.000	3.37282	2.62959	0.19572	1.60703
1887.000	3.45162	2.63334	0.22538	1.63486
1888.000	3.34130	2.60589	0.18386	1.59908
1889.000	3.36297	2.58998	0.21352	1.72033
1890.000	3.36297	2.58403	0.17595	1.66071
1891.000	3.34721	2.54642	0.18386	1.74220
1892.000	3.42995	2.62349	0.16211	1.71636
1893.000	3.46738	2.58970	0.16607	1.75810
1894.000	3.40434	2.48680	0.18386	1.75015
1895.000	3.51465	2.55390	0.18979	1.64679
1896.000	3.47723	2.55796	0.18188	1.64480
1897.000	3.52450	2.58558	0.16409	1.63487
1898.000	3.51662	2.60145	0.17398	1.63884
1899.000	3.43980	2.52041	0.16409	1.67065
1900.000	3.52450	2.53405	0.21549	1.67462
1901.000	3.55404	2.55973	0.15223	1.68655
1902.000	3.51662	2.55785	0.17991	1.72232
1903.000	3.51662	2.55191	0.13444	1.72630
1904.000	3.46935	2.54807	0.11664	1.70444
1905.000	3.53828	2.50429	0.11467	1.72233
1906.000	3.46541	2.50845	0.14037	1.74022
1907.000	3.49101	2.50441	0.09885	1.76805
1908.000	3.48511	2.49056	0.09885	1.68258
1909.000	3.51662	2.53407	0.08303	1.77202
1910.000	3.53435	2.53403	0.06326	1.77600
1911.000	3.56586	2.57753	0.07117	1.73227
1912.000	3.51268	2.51427	0.09885	1.74221
1913.000	3.47329	2.52032	0.11071	1.79388
1914.000	3.51662	2.53606	0.09490	1.80382
1915.000	3.46738	2.46484	0.09292	1.76805
1916.000	3.49298	2.43107	0.12060	1.77401
1917.000	3.50480	2.54401	0.12455	1.74618
1918.000	3.44571	2.53228	0.05931	1.79388
1919.000	3.49495	2.53017	0.11467	1.72432
1920.000	3.49495	2.55990	0.08106	1.75811
1921.000	3.47723	2.51832	0.10083	1.76009
1922.000	3.49101	2.55991	0.07710	1.74618
1923.000	3.46738	2.46484	0.08501	1.78395
1924.000	3.43586	2.49267	0.11071	1.77401
1925.000	3.41813	2.47686	0.10478	1.75214
1926.000	3.43586	2.46492	0.04152	1.79389
1927.000	3.40631	2.43328	0.03954	1.73823
1928.000	3.41025	2.48481	0.06722	1.81773
1929.000	3.46344	2.50647	0.13246	1.82568
1930.000	3.36888	2.51068	0.10676	1.79587
1931.000	3.41025	2.48877	0.05140	1.74420
1932.000	3.45556	2.46883	0.12257	1.76009
1933.000	3.51662	2.49642	0.11071	1.79587
1934.000	3.50086	2.51430	0.09490	1.73028
1935.000	3.48117	2.43507	0.08699	1.72233
1936.000	3.45359	2.44901	0.05338	1.85351
1937.000	3.46935	2.43113	0.07710	1.76805
1938.000	3.50874	2.47067	0.07513	1.67065
1939.000	3.52844	2.56575	0.13641	1.79786
1940.000	3.49495	2.48657	0.12455	1.77401
1941.000	3.54616	2.53003	0.14234	1.79984
1942.000	3.47329	2.53221	0.12850	1.72630
1943.000	3.52253	2.47460	0.10478	1.82568
1944.000	3.50283	2.50042	0.07908	1.86543
1945.000	3.49889	2.53412	0.11071	1.80779
1946.000	3.46935	2.50844	0.12455	1.73624
1947.000	3.49692	2.44097	0.12455	1.75214
1948.000	3.42207	2.46495	0.05733	1.78395
1949.000	3.50677	2.51825	0.09687	1.78196
1950.000	3.47329	2.45689	0.13444	1.73624
1951.000	3.41419	2.54822	0.14827	1.70444
1952.000	3.49101	2.43702	0.10676	1.77202
1953.000	3.43980	2.48671	0.07908	1.71438
1954.000	3.50086	2.51232	0.05338	1.77003
1955.000	3.47920	2.40534	0.12060	1.73028
1956.000	3.44965	2.49263	0.07710	1.72034
1957.000	3.49495	2.41323	0.15223	1.73425
1958.000	3.52253	2.46865	0.16804	1.78593
1959.000	3.47723	2.44895	0.12060	1.71637
1960.000	3.47329	2.49059	0.17398	1.74618
1961.000	3.45950	2.49855	0.09094	1.69053
1962.000	3.47132	2.49852	0.10874	1.77798
1963.000	3.53041	2.46269	0.11664	1.73426
1964.000	3.46738	2.42717	0.12060	1.73823
1965.000	3.48314	2.51831	0.12850	1.81773
1966.000	3.47723	2.46481	0.10874	1.70047
1967.000	3.46541	2.45097	0.07908	1.76606
1968.000	3.49495	2.50440	0.07908	1.81177
1969.000	3.59933	2.53385	0.15618	1.76804
1970.000	3.52056	2.50434	0.12850	1.75214
1971.000	3.54813	2.46859	0.15816	1.78195
1972.000	3.49101	2.40927	0.14827	1.71438
1973.000	3.45950	2.51243	0.11862	1.77202
1974.000	3.50874	2.52220	0.16409	1.80183
1975.000	3.50874	2.48455	0.14630	1.74220
1976.000	3.47526	2.42914	0.13839	1.77003
1977.000	3.47920	2.41922	0.13839	1.69450
1978.000	3.48314	2.50444	0.17595	1.72829
1979.000	3.52253	2.46469	0.14234	1.76009
1980.000	3.52844	2.46071	0.13048	1.76606
1981.000	3.51268	2.45084	0.07908	1.74618
1982.000	3.48708	2.42316	0.13839	1.73028
1983.000	3.41813	2.47487	0.11467	1.75612
1984.000	3.44374	2.55409	0.07710	1.70047
1985.000	3.47920	2.39543	0.09292	1.67463
1986.000	3.48117	2.43309	0.05338	1.67264
1987.000	3.44177	2.40543	0.12653	1.71040
1988.000	3.53828	2.46663	0.07710	1.67463
1989.000	3.49298	2.54405	0.09490	1.71637
1990.000	3.47329	2.50050	0.06920	1.76407
1991.000	3.42995	2.49268	0.06920	1.73823
1992.000	3.48314	2.53416	0.03163	1.71637
1993.000	3.43980	2.54419	0.12455	1.76009
1994.000	3.46541	2.49061	0.05536	1.69252
1995.000	3.46541	2.40934	0.04745	1.73227
1996.000	3.50086	2.50042	0.08106	1.69450
1997.000	3.46935	2.47276	0.14432	1.71835
1998.000	3.54813	2.48048	0.04943	1.70643
1999.000	3.46541	2.49655	0.08106	1.72233
2000.000	3.46738	2.55601	0.07710	1.73823
2001.000	3.45950	2.41332	0.11467	1.71040
2002.000	3.48314	2.35181	0.05931	1.69053
2003.000	3.52844	2.56377	0.11071	1.72233
2004.000	3.50283	2.49249	0.12257	1.75811
2005.000	3.45556	2.46288	0.11269	1.75811
2006.000	3.50480	2.50041	0.11269	1.68854
2007.000	3.48708	2.48460	0.09094	1.77798
2008.000	3.43783	2.47284	0.08897	1.70643
2009.000	3.45162	2.39748	0.10280	1.74618
2010.000	3.38070	2.43532	0.10874	1.75016
2011.000	3.50086	2.46277	0.06326	1.67463
2012.000	3.48117	2.44894	0.08303	1.66668
2013.000	3.46147	2.47278	0.09885	1.66270
2014.000	3.47526	2.54211	0.01779	1.67065
2015.000	3.44768	2.44308	0.14630	1.70841
2016.000	3.47132	2.59960	0.12257	1.77798
2017.000	3.48117	2.55993	0.13444	1.72630
2018.000	3.47920	2.52228	0.09687	1.75612
2019.000	3.53041	2.54593	0.11071	1.72432
2020.000	3.47329	2.54806	0.11269	1.72233
2021.000	3.53238	2.54394	0.09094	1.71637
2022.000	3.54025	2.58950	0.11269	1.71438
2023.000	3.49692	2.57376	0.12850	1.79587
2024.000	3.50874	2.60544	0.13839	1.79189
2025.000	3.51662	2.64703	0.06722	1.77798
2026.000	3.50480	2.58959	0.07117	1.78395
2027.000	3.49692	2.54800	0.10874	1.76606
2028.000	3.50677	2.57374	0.13641	1.81177
2029.000	3.51859	2.58559	0.11664	1.78991
2030.000	3.48314	2.64712	0.12455	1.77202
2031.000	3.53435	2.54393	0.20758	1.86542
2032.000	3.48511	2.54407	0.14827	1.81773
2033.000	3.51268	2.62722	0.14432	1.86344
2034.000	3.54419	2.63902	0.15223	1.80978
2035.000	3.56192	2.67265	0.16607	1.80978
2036.000	3.48314	2.61740	0.12850	1.76208
2037.000	3.51662	2.64108	0.09687	1.77600
2038.000	3.45556	2.64720	0.12653	1.81773
2039.000	3.51465	2.69062	0.16607	1.82965
2040.000	3.56192	2.64888	0.12455	1.73823
2041.000	3.55010	2.60334	0.14827	1.81972
2042.000	3.55798	2.61124	0.09687	1.72233
2043.000	3.50874	2.65299	0.13246	1.73425
2044.000	3.56783	2.60527	0.10280	1.84754
2045.000	3.47329	2.65309	0.09885	1.74221
2046.000	3.54616	2.64694	0.09490	1.81972
2047.000	3.47526	2.58571	0.13641	1.71438
2048.000	3.51268	2.67676	0.10083	1.80581
2049.000	3.53631	2.65291	0.13246	1.71239
2050.000	3.51465	2.60344	0.11862	1.68258
2051.000	3.52647	2.59350	0.12257	1.80183
2052.000	3.56979	2.69839	0.09885	1.78395
2053.000	3.46738	2.66104	0.13444	1.83363
2054.000	3.54025	2.60535	0.12653	1.76407
2055.000	3.61115	2.61307	0.13048	1.75811
2056.000	3.54813	2.63307	0.08303	1.71836
2057.000	3.52647	2.62718	0.11467	1.75016
2058.000	3.50086	2.61338	0.08501	1.76407
2059.000	3.47723	2.57976	0.12653	1.84555
2060.000	3.55995	2.65879	0.09885	1.75612
2061.000	3.48117	2.53615	0.08699	1.77202
2062.000	3.53828	2.65687	0.12455	1.80581
2063.000	3.57767	2.65081	0.05931	1.73227
2064.000	3.58555	2.68645	0.10676	1.81574
2065.000	3.54419	2.58354	0.14432	1.82369
2066.000	3.55010	2.64495	0.11269	1.82369
2067.000	3.51268	2.56976	0.09687	1.89126
2068.000	3.55995	2.57953	0.08897	1.76010
2069.000	3.55404	2.63107	0.08897	1.80183
2070.000	3.53828	2.62319	0.16211	1.84356
2071.000	3.52056	2.58559	0.13444	1.84754
2072.000	3.48117	2.61740	0.12257	1.76208
2073.000	3.55995	2.57755	0.07908	1.79985
2074.000	3.52253	2.63710	0.08303	1.84953
2075.000	3.57570	2.64091	0.16211	1.79785
2076.000	3.54813	2.57164	0.11862	1.81773
2077.000	3.46147	2.62340	0.12257	1.80382
2078.000	3.55601	2.57954	0.10874	1.73823
2079.000	3.51071	2.63515	0.08303	1.80780
2080.000	3.54813	2.61722	0.08501	1.73624
2081.000	3.51859	2.62324	0.11269	1.76009
2082.000	3.55995	2.64294	0.05536	1.75016
2083.000	3.52450	2.59152	0.16014	1.84754
2084.000	3.51071	2.61930	0.12850	1.80779
2085.000	3.49298	2.58368	0.13048	1.82568
2086.000	3.49889	2.61339	0.15223	1.75214
2087.000	3.57767	2.61317	0.12060	1.73823
2088.000	3.51268	2.61930	0.11071	1.84556
2089.000	3.55995	2.68653	0.10676	1.81574
2090.000	3.51268	2.60939	0.13444	1.72233
2091.000	3.52450	2.63512	0.15223	1.82369
2092.000	3.55798	2.65483	0.09094	1.88729
2093.000	3.54419	2.61921	0.06326	1.77600
2094.000	3.52647	2.68068	0.05931	1.85351
2095.000	3.50677	2.61337	0.11862	1.76208
2096.000	3.58358	2.71816	0.07513	1.85152
2097.000	3.52647	2.66483	0.10874	1.82171
2098.000	3.55010	2.68260	0.13444	1.77003
2099.000	3.54616	2.66477	0.13641	1.74817
2100.000	3.57767	2.64685	0.11071	1.77997
2101.000	3.58358	2.67259	0.16014	1.80183
2102.000	3.66628	2.70602	0.08106	1.72631
2103.000	3.62099	2.62691	0.12257	1.72233
2104.000	3.58555	2.71221	0.11862	1.77798
2105.000	3.52647	2.63709	0.13246	1.83562
2106.000	3.60721	2.71611	0.10478	1.77003
2107.000	3.56979	2.71027	0.05536	1.79587
2108.000	3.51859	2.69457	0.08699	1.83363
2109.000	3.53828	2.65687	0.09687	1.81575
2110.000	3.54419	2.69252	0.15618	1.87337
2111.000	3.56783	2.71226	0.09292	1.83363
2112.000	3.51071	2.67875	0.06722	1.79587
2113.000	3.49889	2.63321	0.12060	1.82369
2114.000	3.55010	2.62514	0.06524	1.90716
2115.000	3.57570	2.68450	0.07315	1.86146
2116.000	3.52450	2.68069	0.11071	1.81972
2117.000	3.56192	2.67265	0.08303	1.84158
2118.000	3.55601	2.70041	0.08303	1.78792
2119.000	3.50480	2.68471	0.07513	1.84754
2120.000	3.49889	2.64708	0.09094	1.84754
2121.000	3.53631	2.72226	0.08106	1.83165
2122.000	3.52647	2.72031	0.13839	1.76606
2123.000	3.56586	2.73802	0.10676	1.83562
2124.000	3.45556	2.68881	0.16409	1.77997
2125.000	3.49101	2.68871	0.22933	1.84753
2126.000	3.53041	2.62915	0.16211	1.70046
2127.000	3.67416	2.61091	0.24515	1.78194
2128.000	3.77850	2.53334	0.33609	1.67858
2129.000	3.89462	2.41412	0.49819	1.66661
2130.000	4.05399	2.33243	0.69587	1.68444
2131.000	4.18183	2.31225	0.85796	1.66450
2132.000	4.39022	2.14921	1.04769	1.65249
2133.000	4.43739	2.00249	1.31052	1.61457
2134.000	4.59653	2.00205	1.45871	1.49126
2135.000	4.87928	2.04677	1.59503	1.43353
2136.000	4.97740	2.00094	1.64441	1.48516
2137.000	5.03037	1.89389	1.70367	1.41954
2138.000	5.14609	1.89750	1.88735	1.21868
2139.000	5.22257	1.95664	1.93672	1.22461
2140.000	5.35782	2.09667	2.03546	1.16889
2141.000	5.41857	2.14591	2.12036	1.25825
2142.000	5.54982	2.10984	2.25065	1.19456
2143.000	5.57136	1.97727	2.30197	1.20445
2144.000	5.64381	2.01658	2.30000	1.22829
2145.000	5.86301	2.05138	2.39868	1.16065
2146.000	5.92952	2.10646	2.49340	1.20229
2147.000	6.04294	2.13171	2.55654	1.22011
2148.000	6.13677	2.17084	2.60784	1.28363
2149.000	6.14654	2.19451	2.69859	1.24381
2150.000	6.15045	2.03449	2.79327	1.21988
2151.000	6.16803	1.99887	2.79918	1.25562
2152.000	6.18367	1.96127	2.81693	1.20992
2153.000	6.18171	1.88818	2.81299	1.15034
2154.000	6.13677	1.87846	2.84652	1.13045
2155.000	6.21102	1.87030	2.84454	1.18010
2156.000	6.14654	1.91794	2.83468	1.13642
2157.000	6.09963	1.91614	2.84849	1.09866
2158.000	6.04098	1.83927	2.80905	1.18014
2159.000	6.01752	1.79982	2.83074	1.14039
2160.000	6.08986	1.86084	2.80116	1.27548
2161.000	6.04489	2.01711	2.80510	1.16425
2162.000	6.00383	1.88090	2.74001	1.11267
2163.000	6.05662	1.89653	2.75974	1.20998
2164.000	6.10354	1.93391	2.69464	1.16039
2165.000	6.08204	1.90829	2.76565	1.27155
2166.000	6.08008	1.91028	2.80313	1.23774
2167.000	6.13677	1.91205	2.75579	1.29936
2168.000	6.17194	1.84475	2.81299	1.24171
2169.000	6.08399	1.79367	2.77354	1.23380
2170.000	6.12699	1.91999	2.73607	1.23781
2171.000	6.09572	1.86477	2.82285	1.24765
2172.000	6.16608	1.94751	2.84060	1.19997
2173.000	6.10354	1.94378	2.80313	1.17021
2174.000	6.19148	1.90198	2.84454	1.19798
2175.000	6.13090	1.94961	2.84652	1.18805
2176.000	6.12895	1.83304	2.80116	1.29137
2177.000	6.17781	1.85263	2.80116	1.19604
2178.000	6.15045	1.87249	2.82877	1.24169
2179.000	6.16999	1.80326	2.82088	1.27149
2180.000	6.15045	1.81914	2.76368	1.24970
2181.000	6.13286	1.80536	2.77946	1.18613
2182.000	6.16413	1.85465	2.77354	1.20202
2183.000	6.20516	1.83475	2.80905	1.25561
2184.000	6.22861	1.92357	2.77749	1.16825
2185.000	6.19735	1.89208	2.76763	1.22189
2186.000	6.21298	1.86239	2.75185	1.24773
2187.000	6.13872	1.85277	2.70845	1.23784
2188.000	6.11918	1.88445	2.73015	1.18022
2189.000	6.18562	1.92175	2.70253	1.16038
2190.000	6.18758	1.93755	2.72818	1.23584
2191.000	6.17976	1.92375	2.71831	1.20009
2192.000	6.18758	1.79925	2.65124	1.27961
2193.000	6.19930	1.86836	2.73212	1.22987
2194.000	6.20712	1.86438	2.74198	1.20603
2195.000	6.19539	1.83084	2.71831	1.21400
2196.000	6.16022	1.87443	2.69464	1.20210
2197.000	6.23056	1.87220	2.69267	1.25772
2198.000	6.20907	1.92759	2.68675	1.17430
2199.000	6.13872	1.85079	2.73804	1.23384
2200.000	6.17194	1.83487	2.70845	1.21003
2201.000	6.24814	1.88794	2.70648	1.20805
2202.000	6.16413	1.86849	2.69070	1.14847
2203.000	6.22861	1.90777	2.73015	1.20803
2204.000	6.19148	1.89012	2.71831	1.15639
2205.000	6.24814	1.87807	2.74198	1.17425
2206.000	6.21298	1.91178	2.68675	1.19218
2207.000	6.19539	1.93160	2.77157	1.24771
2208.000	6.24814	1.92745	2.74198	1.23185
2209.000	6.23056	1.92554	2.70648	1.22593
2210.000	6.31846	1.92522	2.71437	1.19612
2211.000	6.27549	1.96883	2.71437	1.14845
2212.000	6.24424	1.94129	2.79918	1.16426
2213.000	6.25596	1.96495	2.77749	1.14640
2214.000	6.21688	1.89991	2.75382	1.18615
2215.000	6.24228	1.95118	2.75185	1.23382
2216.000	6.20907	1.97106	2.69662	1.17032
2217.000	6.26182	1.93925	2.72423	1.14248
2218.000	6.26768	1.95306	2.80116	1.13645
2219.000	6.19930	1.90985	2.81693	1.17219
2220.000	6.20907	1.91574	2.75185	1.17026
2221.000	6.27354	2.00242	2.79524	1.14043
2222.000	6.25987	1.98074	2.76171	1.09080
2223.000	6.26768	1.92343	2.79918	1.12851
2224.000	6.27940	1.94314	2.74987	1.12855
2225.000	6.24619	1.90968	2.75974	1.12457
2226.000	6.28721	1.97866	2.81693	1.17020
2227.000	6.25205	1.96102	2.80313	1.16425
2228.000	6.26768	2.00639	2.78932	1.13845
2229.000	6.25791	1.97285	2.80510	1.11857
2230.000	6.30089	1.88578	2.78143	1.11263
2231.000	6.26377	1.93134	2.79721	1.20200
2232.000	6.29112	1.97075	2.85638	1.10263
2233.000	6.24228	1.88006	2.79918	1.08679
2234.000	6.31846	1.95879	2.79721	1.11460
2235.000	6.24424	1.88005	2.78735	1.10071
2236.000	6.28135	1.95893	2.82482	1.12252
2237.000	6.30870	1.93513	2.82877	1.10464
2238.000	6.27549	1.93328	2.81496	1.16027
2239.000	6.29307	1.94506	2.76960	1.10271
2240.000	6.22665	1.87024	2.82680	1.08875
2241.000	6.26573	1.93134	2.76960	1.14442
2242.000	6.26182	1.81678	2.78538	1.08482
2243.000	6.22470	1.81888	2.78932	1.06098
2244.000	6.26377	1.85430	2.75382	1.10074
2245.000	6.24033	1.88204	2.75185	1.14444
2246.000	6.24814	1.95708	2.77354	1.24373
2247.000	6.30284	1.92132	2.77946	1.20599
2248.000	6.26182	1.85234	2.82285	1.20197
2249.000	6.28917	1.89372	2.78735	1.27550
2250.000	6.21298	1.88807	2.81299	1.20794
2251.000	6.19344	1.89999	2.79524	1.27946
2252.000	6.22470	1.90581	2.79327	1.18810
2253.000	6.25596	1.88001	2.78932	1.22584
2254.000	6.21688	1.95127	2.80116	1.27945
2255.000	6.29893	1.95887	2.81496	1.26752
2256.000	6.25791	1.85630	2.81299	1.26752
2257.000	6.19735	1.86047	2.81102	1.24767
2258.000	6.25010	1.89781	2.78932	1.29337
2259.000	6.24424	1.81881	2.84454	1.27543
2260.000	6.20516	1.77548	2.85638	1.27343
2261.000	6.18171	1.75777	2.82285	1.29135
2262.000	6.20516	1.86439	2.78143	1.33310
2263.000	6.14458	1.83101	2.78735	1.26755
2264.000	6.18171	1.93560	2.80707	1.28739
2265.000	6.16608	1.83489	2.81693	1.24766
2266.000	6.26377	1.82665	2.72226	1.27755
2267.000	6.14654	1.80334	2.74987	1.31923
2268.000	6.18953	1.80319	2.79721	1.31918
2269.000	6.17585	1.88623	2.75185	1.29738
2270.000	6.19539	1.75773	2.82482	1.33106
2271.000	6.15826	1.79144	2.81693	1.32114
2272.000	6.21102	1.81300	2.79524	1.32713
2273.000	6.13677	1.78954	2.83863	1.37275
2274.000	6.13677	1.74409	2.78538	1.19605
2275.000	6.16803	1.81512	2.76171	1.24573
2276.000	6.18367	1.73603	2.77157	1.32517
2277.000	6.14067	1.81522	2.77157	1.27353
2278.000	6.12113	1.80145	2.76960	1.27154
2279.000	6.16413	1.87046	2.79918	1.25364
2280.000	6.13872	1.81918	2.78932	1.31522
2281.000	6.20516	1.84858	2.79129	1.26556
2282.000	6.18953	1.83876	2.75185	1.25170
2283.000	6.16217	1.81514	2.79918	1.26357
2284.000	6.15826	1.88431	2.82482	1.24964
2285.000	6.18367	1.82495	2.74001	1.15637
2286.000	6.22470	1.91173	2.81496	1.23773
2287.000	6.11527	1.85285	2.76960	1.24771
2288.000	6.21102	1.80510	2.78932	1.33309
2289.000	6.12895	1.83106	2.80905	1.25760
2290.000	6.27159	1.90366	2.72818	1.29939
2291.000	6.12113	1.81924	2.78735	1.20598
2292.000	6.15826	1.85072	2.76763	1.27552
2293.000	6.17390	1.86648	2.72620	1.23385
2294.000	6.09181	1.87467	2.77946	1.26756
2295.000	6.10940	1.77975	2.74198	1.30534
2296.000	6.20516	1.79326	2.76565	1.25963
2297.000	6.21493	1.92757	2.74987	1.24574
2298.000	6.14263	1.83299	2.72423	1.24776
2299.000	6.14654	1.86064	2.76368	1.27155
2300.000	6.19930	1.93158	2.77354	1.24373
2301.000	6.17390	1.84474	2.75382	1.22588
2302.000	6.21102	1.95129	2.73607	1.22788
2303.000	6.22275	1.94335	2.70648	1.23586
2304.000	6.21102	1.93747	2.75382	1.26957
2305.000	6.24424	1.96895	2.78538	1.20201
2306.000	6.20125	1.93355	2.75579	1.24574
2307.000	6.20907	1.92167	2.72423	1.26961
2308.000	6.19930	1.93356	2.74593	1.29937
2309.000	6.21688	1.91571	2.77749	1.24572
2310.000	6.25010	1.94522	2.73409	1.27158
2311.000	6.20125	1.94540	2.71831	1.35303
2312.000	6.19930	2.03035	2.76763	1.34304
2313.000	6.23251	1.97097	2.73212	1.28151
2314.000	6.23447	1.93145	2.70648	1.33318
2315.000	6.20125	1.88416	2.74396	1.30335
2316.000	6.17585	1.92772	2.76763	1.27949
2317.000	6.20712	1.96119	2.78143	1.29139
2318.000	6.22861	1.94333	2.80510	1.35889
2319.000	6.20712	1.98489	2.72620	1.27953
2320.000	6.16413	1.96925	2.75579	1.21992
2321.000	6.28135	2.04584	2.79524	1.29733
2322.000	6.24033	1.94526	2.68873	1.20807
2323.000	6.18953	2.01064	2.76171	1.23977
2324.000	6.16999	1.94749	2.72620	1.24974
2325.000	6.26377	1.97875	2.73212	1.25371
2326.000	6.20712	1.91575	2.79524	1.22186
2327.000	6.15826	1.98507	2.74001	1.32719
2328.000	6.20321	1.92762	2.72423	1.31926
2329.000	6.18171	1.90794	2.81299	1.26157
2330.000	6.16217	1.90603	2.73804	1.28151
2331.000	6.27159	1.93132	2.70451	1.32325
2332.000	6.24814	1.86424	2.76171	1.35100
2333.000	6.22665	1.90778	2.77749	1.39070
2334.000	6.22470	1.93544	2.74790	1.39272
2335.000	6.17976	1.90399	2.78735	1.38473
2336.000	6.12113	1.95953	2.78932	1.25166
2337.000	6.15045	1.92188	2.75974	1.34703
2338.000	6.20125	1.88416	2.82680	1.43433
2339.000	6.16022	1.83886	2.74396	1.31328
2340.000	6.21493	1.95721	2.75776	1.15437
2341.000	6.17390	1.84672	2.81496	1.07287
2342.000	6.21884	1.82483	2.78932	0.97159
2343.000	6.18953	1.56408	2.84454	0.87421
2344.000	6.20321	1.36639	2.88004	0.64572
2345.000	6.21298	1.14299	2.90173	0.64372
2346.000	6.28526	0.93131	2.93920	0.32981
2347.000	6.29307	0.84826	3.02792	0.14105
2348.000	6.37314	0.60498	3.03975	-0.05165
2349.000	6.29112	0.55367	3.09101	-0.30394
2350.000	6.29503	0.25509	3.10875	-0.37743
2351.000	6.29698	0.16413	3.11663	-0.32777
2352.000	6.31846	0.18587	3.19153	-0.34363
2353.000	6.30870	0.06130	3.20139	-0.29000
2354.000	6.33409	0.04746	3.19547	-0.40719
2355.000	6.41805	0.04942	3.23292	-0.56011
2356.000	6.46490	0.03163	3.24671	-0.67331
2357.000	6.51955	-0.04941	3.24671	-0.75473
2358.000	6.47271	-0.21349	3.30189	-0.81029
2359.000	6.49613	-0.30440	3.28415	-0.85995
2360.000	6.44538	-0.38548	3.27036	-0.92350
2361.000	6.52345	-0.45065	3.27233	-0.83216
2362.000	6.51760	-0.44670	3.31765	-0.91750
2363.000	6.55077	-0.38540	3.24277	-0.93941
2364.000	6.54882	-0.43679	3.24868	-1.04465
2365.000	6.52736	-0.53760	3.31765	-1.12598
2366.000	6.60540	-0.48614	3.34918	-1.16763
2367.000	6.61516	-0.49799	3.35706	-1.25100
2368.000	6.51174	-0.64237	3.39252	-1.27080
2369.000	6.67952	-0.65993	3.39449	-1.29660
2370.000	6.65027	-0.69356	3.43389	-1.34021
2371.000	6.61516	-0.72325	3.40040	-1.26682
2372.000	6.59565	-0.77465	3.36691	-1.23709
2373.000	6.61711	-0.73510	3.34918	-1.19741
2374.000	6.58004	-0.62054	3.35509	-1.16762
2375.000	6.59174	-0.60670	3.40631	-1.23704
2376.000	6.61125	-0.65014	3.30386	-1.16768
2377.000	6.61320	-0.48811	3.39252	-1.04449
2378.000	6.60150	-0.57112	3.35115	-1.04454
2379.000	6.56833	-0.50396	3.29598	-0.95922
2380.000	6.64637	-0.50586	3.34130	-0.96712
2381.000	6.55858	-0.52176	3.32750	-0.95919
2382.000	6.59370	-0.54148	3.32356	-1.02273
2383.000	6.57028	-0.59487	3.30977	-1.00884
2384.000	6.54882	-0.62454	3.31174	-0.97509
2385.000	6.52540	-0.63445	3.30189	-1.06047
2386.000	6.58199	-0.72922	3.33341	-1.07434
2387.000	6.60735	-0.77463	3.30189	-1.11408
2388.000	6.61320	-0.73906	3.29007	-1.12005
2389.000	6.64051	-0.69950	3.35903	-1.10210
2390.000	6.56833	-0.80236	3.33144	-1.21133
2391.000	6.58004	-0.80629	3.28810	-1.09821
2392.000	6.51955	-0.84196	3.35115	-1.26887
2393.000	6.58784	-0.79640	3.33341	-1.17559
2394.000	6.57614	-0.79444	3.29795	-1.17960
2395.000	6.54297	-0.73521	3.33933	-1.23911
2396.000	6.63466	-0.81410	3.31371	-1.16370
2397.000	6.54492	-0.79251	3.28612	-1.27689
2398.000	6.55663	-0.83992	3.33538	-1.18750
2399.000	6.55272	-0.78460	3.33736	-1.27683
2400.000	6.49223	-0.84003	3.31962	-1.14186
2401.000	6.49418	-0.81236	3.35312	-1.23909
2402.000	6.58589	-0.65808	3.37085	-1.20929
2403.000	6.47076	-0.78670	3.32947	-1.18552
2404.000	6.56443	-0.83793	3.30780	-1.22724
2405.000	6.49223	-0.81631	3.35509	-1.19144
2406.000	6.56833	-0.74110	3.31568	-1.17164
2407.000	6.54687	-0.82610	3.33736	-1.19345
2408.000	6.50784	-0.80443	3.28612	-1.16572
2409.000	6.46880	-0.76694	3.25854	-1.18759
2410.000	6.50784	-0.80048	3.33341	-1.13985
2411.000	6.51174	-0.76292	3.26051	-1.16178
2412.000	6.49808	-0.85978	3.32356	-1.09420
2413.000	6.47076	-0.82425	3.33144	-1.14581
2414.000	6.50589	-0.82024	3.35706	-1.13586
2415.000	6.53516	-0.89133	3.32356	-1.13192
2416.000	6.58004	-0.88137	3.34130	-1.13190
2417.000	6.56443	-0.85571	3.29795	-1.21335
2418.000	6.50589	-0.84989	3.32356	-1.15376
2419.000	6.59174	-0.78849	3.31962	-1.07634
2420.000	6.51174	-0.79652	3.32750	-1.17560
2421.000	6.56833	-0.80829	3.29992	-1.07835
2422.000	6.58784	-0.72526	3.26839	-1.10022
2423.000	6.54687	-0.80042	3.26248	-1.08434
2424.000	6.56443	-0.78063	3.31371	-1.09818
2425.000	6.58004	-0.78258	3.31765	-1.14583
2426.000	6.57223	-0.81025	3.25263	-1.10222
2427.000	6.52931	-0.82416	3.31174	-1.08826
2428.000	6.60345	-0.83589	3.35509	-1.16167
2429.000	6.54297	-0.82018	3.33341	-1.19743
2430.000	6.55467	-0.78064	3.28021	-1.11411
2431.000	6.58784	-0.78059	3.28810	-1.19748
2432.000	6.59174	-0.77070	3.29795	-1.08827
2433.000	6.58394	-0.76874	3.33341	-1.12993
2434.000	6.59955	-0.83985	3.31174	-1.15576
2435.000	6.54687	-0.80437	3.34524	-1.19940
2436.000	6.58979	-0.78256	3.33538	-1.16963
2437.000	6.56833	-0.78062	3.29401	-1.12005
2438.000	6.53126	-0.85380	3.35115	-1.14182
2439.000	6.61906	-0.77066	3.35312	-1.14777
2440.000	6.58589	-0.79838	3.32750	-1.14185
2441.000	6.57809	-0.77073	3.29992	-1.10217
2442.000	6.55077	-0.80436	3.30386	-1.11408
2443.000	6.59955	-0.74303	3.39843	-1.18147
2444.000	6.60735	-0.70350	3.40434	-1.17947
2445.000	6.56053	-0.82608	3.34918	-1.13984
2446.000	6.57223	-0.74702	3.36100	-1.14379
2447.000	6.55272	-0.83202	3.37479	-1.24303
2448.000	6.60345	-0.74698	3.36691	-1.15371
2449.000	6.62881	-0.78843	3.39055	-1.18942
2450.000	6.55077	-0.71939	3.34721	-1.18748
2451.000	6.59760	-0.77267	3.34721	-1.15175
2452.000	6.57614	-0.82210	3.38070	-1.15370
2453.000	6.59174	-0.78651	3.34524	-1.21528
2454.000	6.54102	-0.76683	3.33933	-1.24903
2455.000	6.59760	-0.77070	3.35509	-1.19740
2456.000	6.56833	-0.75888	3.38267	-1.27478
2457.000	6.65027	-0.68368	3.35706	-1.28077
2458.000	6.58589	-0.78059	3.35903	-1.16960
2459.000	6.57028	-0.73715	3.38070	-1.26486
2460.000	6.66977	-0.78046	3.38464	-1.25096
2461.000	6.55663	-0.76878	3.37873	-1.33235
2462.000	6.58784	-0.71538	3.39646	-1.29858
2463.000	6.60345	-0.77661	3.36297	-1.25694
2464.000	6.60150	-0.78254	3.37282	-1.24502
2465.000	6.57809	-0.79444	3.36888	-1.33832
2466.000	6.63856	-0.75087	3.38464	-1.32440
2467.000	6.63856	-0.84768	3.32947	-1.25103
2468.000	6.61711	-0.76671	3.38267	-1.28074
2469.000	6.64441	-0.76470	3.31962	-1.29472
2470.000	6.54102	-0.77671	3.37676	-1.29266
2471.000	6.63271	-0.72915	3.33538	-1.36417
2472.000	6.65417	-0.77653	3.35903	-1.30856
2473.000	6.60150	-0.78452	3.42010	-1.35214
2474.000	6.62296	-0.77263	3.36691	-1.39588
2475.000	6.54492	-0.73916	3.44177	-1.32036
2476.000	6.62686	-0.75682	3.36100	-1.30856
2477.000	6.58979	-0.72724	3.33736	-1.38005
2478.000	6.62296	-0.72719	3.36691	-1.33435
2479.000	6.61516	-0.74103	3.39252	-1.32241
2480.000	6.58979	-0.75490	3.40237	-1.36408
2481.000	6.57028	-0.71739	3.34721	-1.36812
2482.000	6.59565	-0.70747	3.33538	-1.40982
2483.000	6.56833	-0.68775	3.35509	-1.31253
2484.000	6.63271	-0.66987	3.34130	-1.34034
2485.000	6.61711	-0.75486	3.35509	-1.33238
2486.000	6.57028	-0.75493	3.32553	-1.32448
2487.000	6.58199	-0.73120	3.36297	-1.29069
2488.000	6.59370	-0.76280	3.34327	-1.26491
2489.000	6.59760	-0.76082	3.38070	-1.21722
2490.000	6.60930	-0.81612	3.38070	-1.29464
2491.000	6.61125	-0.81809	3.34918	-1.27681
2492.000	6.65222	-0.79432	3.38070	-1.23508
2493.000	6.65612	-0.68762	3.39843	-1.30454
2494.000	6.61906	-0.73510	3.36297	-1.27084
2495.000	6.58979	-0.73909	3.35115	-1.26490
2496.000	6.60540	-0.72326	3.33736	-1.28874
2497.000	6.58979	-0.76676	3.37282	-1.31450
2498.000	6.60540	-0.76080	3.37873	-1.27280
2499.000	6.60345	-0.72326	3.37676	-1.26884
2500.000	6.66587	-0.69749	3.37282	-1.30854
2501.000	6.62491	-0.74497	3.35115	-1.30658
2502.000	6.63466	-0.69556	3.33538	-1.31653
2503.000	6.61711	-0.69953	3.35903	-1.22122
2504.000	6.60150	-0.70944	3.33341	-1.24507
2505.000	6.61711	-0.71929	3.39055	-1.32837
2506.000	6.61516	-0.72522	3.31765	-1.25502
2507.000	6.60930	-0.79636	3.36691	-1.29068
2508.000	6.58004	-0.73516	3.38267	-1.24501
2509.000	6.64246	-0.78841	3.38267	-1.23905
2510.000	6.61125	-0.72918	3.37479	-1.35221
2511.000	6.59174	-0.74304	3.36494	-1.25694
2512.000	6.64246	-0.69752	3.36494	-1.27282
2513.000	6.59565	-0.76872	3.40040	-1.34622
2514.000	6.65027	-0.79235	3.33538	-1.29271
2515.000	6.58199	-0.73713	3.32947	-1.37212
2516.000	6.61320	-0.74894	3.33144	-1.40983
2517.000	6.59760	-0.72723	3.39252	-1.32638
2518.000	6.61711	-0.75091	3.34918	-1.28674
2519.000	6.59565	-0.77070	3.38070	-1.26089
2520.000	6.66782	-0.75083	3.31962	-1.25700
2521.000	6.57809	-0.69761	3.38267	-1.28471
2522.000	6.66002	-0.70738	3.37085	-1.30060
2523.000	6.53711	-0.76288	3.38070	-1.21126
2524.000	6.62491	-0.73904	3.36691	-1.26289
2525.000	6.64832	-0.78049	3.40434	-1.29857
2526.000	6.65222	-0.72122	3.38661	-1.24103
2527.000	6.60735	-0.68769	3.40434	-1.30056
2528.000	6.62296	-0.71533	3.34524	-1.32446
2529.000	6.54492	-0.76683	3.36494	-1.33237
2530.000	6.53711	-0.75300	3.36100	-1.31054
2531.000	6.64441	-0.76470	3.35312	-1.33636
2532.000	6.57614	-0.72528	3.32947	-1.25500
2533.000	6.59760	-0.72920	3.35312	-1.26291
2534.000	6.57809	-0.68576	3.30780	-1.33046
2535.000	6.60930	-0.76277	3.33538	-1.35028
2536.000	6.57028	-0.75888	3.32159	-1.30662
2537.000	6.53711	-0.80834	3.39055	-1.28668
2538.000	6.57028	-0.81421	3.47526	-1.20717
2539.000	6.62296	-0.85364	3.54813	-1.24082
2540.000	6.69317	-0.94438	3.70566	-1.30807
2541.000	6.93877	-0.80767	3.87887	-1.36931
2542.000	7.10235	-0.79159	4.06185	-1.21628
2543.000	7.25999	-0.87616	4.26834	-1.29330
2544.000	7.54578	-1.02938	4.45900	-1.22160
2545.000	7.72640	-1.02106	4.72222	-1.26475
2546.000	8.03483	-0.93562	4.94796	-1.32772
2547.000	8.24019	-0.99813	5.27158	-1.24983
2548.000	8.52657	-0.90888	5.48714	-1.20782
2549.000	8.66187	-0.91053	5.70646	-1.19351
2550.000	8.92253	-0.77431	5.97059	-1.18306
2551.000	9.13464	-0.80331	6.15631	-1.04820
2552.000	9.39655	-0.67319	6.44148	-1.08320
2553.000	9.67918	-0.58243	6.73217	-1.15169
2554.000	9.93066	-0.58983	6.98357	-1.03067
2555.000	10.16068	-0.56787	7.14129	-0.93757
2556.000	10.38464	-0.44615	7.36307	-0.95289
2557.000	10.55860	-0.37745	7.57104	-0.86174
2558.000	10.83730	-0.42205	7.90298	-0.92607
2559.000	11.14783	-0.33572	8.12591	-0.68534
2560.000	11.22584	-0.33173	8.47823	-0.57848
2561.000	11.61143	-0.28646	8.68699	-0.57423
2562.000	11.80289	-0.19863	8.81059	-0.53276
2563.000	12.09430	-0.13228	9.09802	-0.50484
2564.000	12.32282	-0.17492	9.25987	-0.46142
2565.000	12.46803	0.01166	9.39077	-0.68694
2566.000	12.64320	-0.08153	9.52927	-0.55915
2567.000	12.86700	-0.07952	9.66382	-0.50598
2568.000	13.08289	0.04844	9.83280	-0.46848
2569.000	13.13353	0.07750	9.89613	-0.35473
2570.000	13.13915	0.20148	9.94217	-0.33116
2571.000	13.17102	0.14916	10.00162	-0.31151
2572.000	13.27219	0.10650	9.99778	-0.29388
2573.000	13.25908	0.16847	10.01121	-0.27820
2574.000	13.27407	0.19363	9.98628	-0.20964
2575.000	13.26657	0.13167	9.95560	-0.20770
2576.000	13.21600	0.11039	9.96902	-0.19202
2577.000	13.11853	0.13175	9.89229	-0.17443
2578.000	13.14478	0.09493	9.94217	-0.17440
2579.000	13.07164	0.11046	9.93642	-0.24495
2580.000	13.12228	0.05425	9.94409	-0.19399
2581.000	13.02473	-0.02520	9.96135	-0.21750
2582.000	13.04725	0.01550	9.95368	-0.23906
2583.000	13.04913	-0.00194	9.95176	-0.23318
2584.000	13.11103	-0.04069	10.00929	-0.26448
2585.000	13.07539	-0.01356	10.00545	-0.26253
2586.000	13.16165	-0.01937	10.00929	-0.28995
2587.000	13.18789	0.05230	10.06871	-0.32907
2588.000	13.27968	0.00000	10.08596	-0.33297
2589.000	13.22349	-0.02905	10.02654	-0.27427
2590.000	13.30964	0.10067	10.02846	-0.26839
2591.000	13.28530	0.12198	10.03421	-0.28797
2592.000	13.33024	0.09098	10.02654	-0.20766
2593.000	13.34334	0.13937	10.05338	-0.22135
2594.000	13.33960	0.17228	10.00354	-0.18612
2595.000	13.37141	0.12387	10.04763	-0.24682
2596.000	13.45372	0.12383	10.06871	-0.19784
2597.000	13.36767	0.05419	9.97861	-0.21945
2598.000	13.40509	0.16836	9.91915	-0.19205
2599.000	13.41444	0.10643	9.93450	-0.22731
2600.000	13.37515	0.17419	9.94025	-0.19988
2601.000	13.31713	0.12196	9.89229	-0.21362
2602.000	13.32462	0.18391	9.86351	-0.19992
2603.000	13.38077	0.16838	9.87886	-0.19207
2604.000	13.35457	0.12969	9.78673	-0.18428
2605.000	13.39386	0.18386	9.80785	-0.14115
2606.000	13.35644	0.13936	9.86351	-0.20384
2607.000	13.36018	0.13549	9.79825	-0.10586
2608.000	13.29841	0.11036	9.79249	-0.13331
2609.000	13.36767	0.19355	9.79057	-0.14115
2610.000	13.40509	0.21868	9.75793	-0.05098
2611.000	13.37515	0.17806	9.76177	-0.10195
2612.000	13.37515	0.22451	9.77713	-0.12744
2613.000	13.37515	0.12387	9.82129	-0.07645
2614.000	13.33960	0.21487	9.77521	-0.07646
2615.000	13.38451	0.21289	9.72529	-0.14314
2616.000	13.36393	0.13549	9.77137	-0.17057
2617.000	13.43315	0.24574	9.78289	-0.11371
2618.000	13.39386	0.19547	9.83280	-0.12937
2619.000	13.39199	0.18579	9.75217	-0.17450
2620.000	13.41818	0.19932	9.79633	-0.10390
2621.000	13.33585	0.19745	9.81553	-0.11370
2622.000	13.33211	0.19165	9.80401	-0.12742
2623.000	13.39386	0.19740	9.85967	-0.16856
2624.000	13.39761	0.18385	9.81361	-0.16271
2625.000	13.39574	0.22837	9.79825	-0.15291
2626.000	13.33772	0.20519	9.79249	-0.11763
2627.000	13.35270	0.15485	9.83088	-0.16662
2628.000	13.43128	0.11030	9.82705	-0.14310
2629.000	13.37328	0.19935	9.83856	-0.16661
2630.000	13.36393	0.18194	9.83088	-0.15486
2631.000	13.39386	0.19353	9.81553	-0.12938
2632.000	13.38638	0.16064	9.83664	-0.15681
2633.000	13.37515	0.20129	9.82705	-0.25091
2634.000	13.40135	0.23997	9.88078	-0.18423
2635.000	13.37328	0.21097	9.83280	-0.23326
2636.000	13.36205	0.26130	9.87119	-0.20972
2637.000	13.40135	0.19159	9.85008	-0.22933
2638.000	13.42567	0.21286	9.88846	-0.23322
2639.000	13.45185	0.28249	9.90380	-0.21166
2640.000	13.38451	0.28450	9.91148	-0.20577
2641.000	13.42192	0.25543	9.89229	-0.25870
2642.000	13.35644	0.24389	9.87502	-0.14896
2643.000	13.39574	0.24772	9.91915	-0.23516
2644.000	13.40135	0.31932	9.84048	-0.17641
2645.000	13.42192	0.27865	9.87502	-0.23911
2646.000	13.45185	0.20122	9.88654	-0.20579
2647.000	13.40883	0.26319	9.94409	-0.21555
2648.000	13.48177	0.21668	9.88654	-0.24694
2649.000	13.42380	0.22640	9.87886	-0.23715
2650.000	13.42192	0.23415	9.94025	-0.24103
2651.000	13.42380	0.22834	9.86735	-0.15484
2652.000	13.40322	0.20127	9.86543	-0.17640
2653.000	13.44437	0.19349	9.87310	-0.23324
2654.000	13.46494	0.20508	9.93450	-0.24103
2655.000	13.43315	0.15674	9.89421	-0.21950
2656.000	13.40509	0.26706	9.86543	-0.23520
2657.000	13.42941	0.23220	9.92682	-0.21752
2658.000	13.42754	0.21866	9.87886	-0.23127
2659.000	13.43689	0.14319	9.92107	-0.23908
2660.000	13.46494	0.27280	9.87502	-0.21755
2661.000	13.41818	0.22447	9.90380	-0.16462
2662.000	13.50981	0.26501	9.83664	-0.16662
2663.000	13.46868	0.27473	9.87886	-0.25283
2664.000	13.44250	0.25154	9.91531	-0.22145
2665.000	13.45559	0.15479	9.89805	-0.15679
2666.000	13.47242	0.23216	9.85583	-0.20385
2667.000	13.39761	0.18772	9.89229	-0.17051
2668.000	13.42754	0.24962	9.91723	-0.18813
2669.000	13.43315	0.23413	9.85967	-0.14112
2670.000	13.45933	0.23798	9.90189	-0.19402
2671.000	13.42005	0.17222	9.90189	-0.23713
2672.000	13.48924	0.25536	9.89613	-0.16659
2673.000	13.43128	0.24768	9.91723	-0.21361
2674.000	13.41257	0.22061	9.88846	-0.15091
2675.000	13.42380	0.18577	9.86543	-0.18424
2676.000	13.42754	0.22060	9.91531	-0.21165
2677.000	13.40883	0.18384	9.84624	-0.17837
2678.000	13.42192	0.20512	9.89613	-0.18226
2679.000	13.39012	0.24579	9.86927	-0.12544
2680.000	13.44063	0.18575	9.89421	-0.18618
2681.000	13.41444	0.29027	9.86543	-0.14308
2682.000	13.44811	0.25153	9.91340	-0.15482
2683.000	13.45185	0.25733	9.81937	-0.08233
2684.000	13.47429	0.32502	9.92107	-0.18029
2685.000	13.44063	0.28057	9.92874	-0.19596
2686.000	13.39199	0.26320	9.86735	-0.18816
2687.000	13.47242	0.25925	9.91340	-0.24497
2688.000	13.53036	0.31528	9.87886	-0.14504
2689.000	13.43689	0.27283	9.88270	-0.21755
2690.000	13.44811	0.27088	9.90764	-0.22733
2691.000	13.41444	0.27286	9.89997	-0.21950
2692.000	13.43128	0.23027	9.90764	-0.21165
2693.000	13.43689	0.28057	9.89805	-0.17638
2694.000	13.45559	0.33279	9.88654	-0.14503
2695.000	13.42192	0.26317	9.89037	-0.18423
2696.000	13.50794	0.24373	9.85583	-0.16465
2697.000	13.39574	0.22062	9.94984	-0.19007
2698.000	13.44811	0.31151	9.91340	-0.25084
2699.000	13.40883	0.27673	9.88078	-0.18031
2700.000	13.47242	0.27085	9.89805	-0.15091
2701.000	13.43128	0.21672	9.91723	-0.17245
2702.000	13.45933	0.30376	9.90189	-0.16462
2703.000	13.45746	0.24959	9.89037	-0.17835
2704.000	13.42754	0.27284	9.87119	-0.19796
2705.000	13.42380	0.23995	9.87886	-0.20775
2706.000	13.47990	0.30954	9.89037	-0.14895
2707.000	13.46120	0.32117	9.89037	-0.12935
2708.000	13.47616	0.25924	9.91915	-0.11170
2709.000	13.49111	0.27470	9.89805	-0.16266
2710.000	13.46868	0.27086	9.89229	-0.21558
2711.000	13.42754	0.22060	9.92874	-0.16265
2712.000	13.38264	0.24773	9.94217	-0.19400
2713.000	13.43876	0.26509	9.89229	-0.09211
2714.000	13.44624	0.31539	9.92491	-0.20576
2715.000	13.49485	0.24375	9.91148	-0.17638
2716.000	13.43689	0.27090	9.87502	-0.20776
2717.000	13.40135	0.22255	9.92107	-0.20381
2718.000	13.43689	0.22446	9.89421	-0.23126
2719.000	13.39948	0.21675	9.85583	-0.17249
2720.000	13.41818	0.23802	9.93450	-0.18812
2721.000	13.33585	0.25552	9.93450	-0.18616
2722.000	13.39574	0.16450	9.94601	-0.19595
2723.000	13.47990	0.25924	9.92491	-0.22928
2724.000	13.43128	0.23607	9.86351	-0.18228
2725.000	13.42380	0.25736	9.91148	-0.16854
2726.000	13.39386	0.14515	9.89805	-0.13719
2727.000	13.45185	0.18188	9.87694	-0.15092
2728.000	13.45559	0.22057	9.92107	-0.12738
2729.000	13.47242	0.22055	9.89229	-0.16071
2730.000	13.44437	0.17027	9.88078	-0.18815
2731.000	13.42005	0.24576	9.85775	-0.12740
2732.000	13.50233	0.25728	9.93833	-0.13325
2733.000	13.43502	0.17608	9.89613	-0.10975
2734.000	13.44998	0.14512	9.91340	-0.19793
2735.000	13.43689	0.22059	9.92874	-0.15481
2736.000	13.42567	0.17803	9.91531	-0.14894
2737.000	13.41818	0.19738	9.93450	-0.14893
2738.000	13.44811	0.24379	9.92107	-0.22732
2739.000	13.38264	0.22644	9.89421	-0.12347
2740.000	13.46681	0.19734	9.88078	-0.09800
2741.000	13.42005	0.18964	9.86351	-0.14700
2742.000	13.39386	0.18192	9.87886	-0.13328
2743.000	13.39574	0.16450	9.90764	-0.24693
2744.000	13.47429	0.21862	9.86735	-0.13132
2745.000	13.43315	0.20898	9.88078	-0.11368
2746.000	13.50233	0.23020	9.89229	-0.09799
2747.000	13.48737	0.18765	9.87694	-0.15876
2748.000	13.39761	0.20708	9.83856	-0.22346
2749.000	13.42941	0.19931	9.97861	-0.21553
2750.000	13.39761	0.19546	9.93642	-0.25475
2751.000	13.37890	0.19741	9.95176	-0.10189
2752.000	13.40696	0.15675	9.91723	-0.17833
2753.000	13.42567	0.13352	9.92682	-0.11170
2754.000	13.41444	0.16642	9.86735	-0.18228
2755.000	13.42567	0.16061	9.89805	-0.11367
2756.000	13.40135	0.21288	9.92299	-0.15873
2757.000	13.36393	0.15484	9.95560	-0.19203
2758.000	13.41818	0.10837	9.89613	-0.14307
2759.000	13.45185	0.15285	9.92682	-0.16265
2760.000	13.45185	0.15866	9.92682	-0.20576
2761.000	13.44063	0.20510	9.94409	-0.17832
2762.000	13.40696	0.23997	9.93833	-0.18616
2763.000	13.42192	0.19931	9.90189	-0.25673
2764.000	13.42192	0.21092	9.96327	-0.20770
2765.000	13.40696	0.19546	9.89997	-0.25085
2766.000	13.43315	0.17609	9.89037	-0.10779
2767.000	13.45933	0.19541	9.89997	-0.13719
2768.000	13.50046	0.20892	9.92491	-0.11562
2769.000	13.38264	0.22838	9.89037	-0.16463
2770.000	13.45746	0.17026	9.84816	-0.20189
2771.000	13.42941	0.17609	9.89229	-0.13131
2772.000	13.39948	0.20127	9.90572	-0.18618
2773.000	13.39199	0.12967	9.90572	-0.15286
2774.000	13.51167	0.23212	9.91148	-0.16854
2775.000	13.40696	0.12772	9.88846	-0.21559
2776.000	13.43128	0.15480	9.99203	-0.19788
2777.000	13.44250	0.15286	9.90764	-0.18422
2778.000	13.42380	0.21092	9.91340	-0.17050
2779.000	13.45746	0.20315	9.91148	-0.23125
2780.000	13.49859	0.17217	9.88846	-0.20187
2781.000	13.40509	0.14321	9.87886	-0.15091
2782.000	13.44063	0.16254	9.92874	-0.22732
2783.000	13.38825	0.16257	9.90189	-0.14502
2784.000	13.44624	0.12964	9.88462	-0.19795
2785.000	13.46681	0.16058	9.90956	-0.11563
2786.000	13.44063	0.14125	9.89613	-0.18030
2787.000	13.43128	0.15867	9.91148	-0.23909
2788.000	13.44250	0.15092	9.93642	-0.20184
2789.000	13.42941	0.12771	9.85200	-0.15289
2790.000	13.47242	0.15477	9.89229	-0.22930
2791.000	13.46307	0.11802	9.95176	-0.21358
2792.000	13.44250	0.10062	9.87310	-0.15288
2793.000	13.41444	0.20706	9.88654	-0.25674
2794.000	13.41444	0.17610	9.86159	-0.19404
2795.000	13.41444	0.14320	9.81553	-0.15486
2796.000	13.40696	0.09289	9.84048	-0.16465
2797.000	13.50233	0.19731	9.90380	-0.15874
2798.000	13.44063	0.14706	9.95368	-0.18027
2799.000	13.45185	0.16640	9.89613	-0.14895
2800.000	13.39574	0.11805	9.88462	-0.18031
2801.000	13.43128	0.18383	9.93450	-0.13325
2802.000	13.39574	0.14321	9.87119	-0.23520
2803.000	13.45746	0.20509	9.91915	-0.14698
2804.000	13.46307	0.19348	9.91915	-0.13326
2805.000	13.42192	0.12772	9.84624	-0.15681
2806.000	13.41444	0.21093	9.88462	-0.12543
2807.000	13.38825	0.18579	9.89613	-0.19206
2808.000	13.44250	0.19736	9.88078	-0.09408
2809.000	13.45372	0.24959	9.88846	-0.22930
2810.000	13.41257	0.20900	9.84240	-0.09801
2811.000	13.39761	0.28255	9.93450	-0.17636
2812.000	13.42754	0.12771	9.89805	-0.12739
2813.000	13.37890	0.21096	9.87886	-0.11368
2814.000	13.35083	0.19357	9.85391	-0.17053
2815.000	13.41257	0.27092	9.89421	-0.15679
2816.000	13.37890	0.24386	9.86927	-0.16464
2817.000	13.39761	0.27287	9.89037	-0.21558
2818.000	13.39199	0.24772	9.89805	-0.12543
2819.000	13.45559	0.25927	9.90956	-0.21361
2820.000	13.42192	0.22641	9.89613	-0.12347
2821.000	13.44998	0.29023	9.86159	-0.15484
2822.000	13.46307	0.26506	9.87119	-0.14112
2823.000	13.44063	0.16834	9.89997	-0.17442
2824.000	13.39948	0.24384	9.89037	-0.13719
2825.000	13.39761	0.15095	9.89229	-0.11171
2826.000	13.43876	0.18576	9.90572	-0.20774
2827.000	13.43876	0.25348	9.95560	-0.22730
2828.000	13.47429	0.25344	9.89229	-0.18423
2829.000	13.43502	0.19156	9.91148	-0.24693
2830.000	13.43128	0.28638	9.94601	-0.14109
2831.000	13.45933	0.18187	9.84048	-0.12545
2832.000	13.49672	0.27083	9.91340	-0.11758
2833.000	13.45933	0.27474	9.89613	-0.10191
2834.000	13.48550	0.22441	9.92682	-0.12346
2835.000	13.41257	0.23803	9.87694	-0.11564
2836.000	13.42192	0.29026	9.89613	-0.14111
2837.000	13.38264	0.28644	9.83664	-0.08625
2838.000	13.26283	0.31756	9.71568	-0.06275
2839.000	13.12040	0.23444	9.75601	-0.27645
2840.000	12.90082	0.32385	9.60809	-0.10788
2841.000	12.66767	0.24845	9.42541	-0.01766
2842.000	12.47934	0.27777	9.20786	-0.19049
2843.000	12.10186	0.26649	9.12886	-0.38891
2844.000	11.80668	0.25705	8.80286	-0.42858
2845.000	11.44061	0.19109	8.35441	-0.48616
2846.000	11.13451	0.24985	8.06197	-0.51607
2847.000	10.77626	0.32442	7.70893	-0.44948
2848.000	10.37125	0.19569	7.39807	-0.47545
2849.000	10.08979	0.34472	7.23859	-0.39274
2850.000	9.69839	0.10197	6.89006	-0.40883
2851.000	9.40232	0.30225	6.65807	-0.40310
2852.000	8.98812	0.11201	6.26377	-0.48054
2853.000	8.65607	0.16718	6.05662	-0.46885
2854.000	8.36408	0.26178	5.66143	-0.36427
2855.000	7.94759	0.15566	5.43620	-0.36639
2856.000	7.68757	0.26222	5.08726	-0.45774
2857.000	7.25999	0.15985	4.69866	-0.44413
2858.000	6.93097	0.19354	4.40201	-0.34117
2859.000	6.51174	0.13441	4.04218	-0.29767
2860.000	6.21884	0.19184	3.76669	-0.36129
2861.000	5.86888	0.13259	3.42010	-0.43292
2862.000	5.58507	0.08712	3.11466	-0.42709
2863.000	5.13825	0.04359	2.74593	-0.50075
2864.000	4.82824	0.12687	2.42236	-0.48100
2865.000	4.52384	-0.02380	2.10061	-0.48111
2866.000	4.24278	0.02778	1.78466	-0.44740
2867.000	3.82574	-0.18063	1.48440	-0.59661
2868.000	3.65250	0.07346	1.23544	-0.55292
2869.000	3.31962	-0.17080	0.99236	-0.54700
2870.000	3.17379	0.00795	0.62471	-0.44958
2871.000	2.84060	-0.02186	0.46656	-0.32426
2872.000	2.65124	0.03180	0.17002	-0.35411
2873.000	2.47959	0.12124	-0.12455	-0.28648
2874.000	2.11246	0.02585	-0.23922	-0.28051
2875.000	1.88341	0.10141	-0.60494	-0.22678
2876.000	1.70170	0.15710	-0.89353	-0.14123
2877.000	1.33424	0.14121	-1.20382	-0.16906
2878.000	1.19196	0.13923	-1.46859	-0.21678
2879.000	0.98840	0.30036	-1.75503	-0.08948
2880.000	0.85598	0.28843	-1.94462	-0.01193
2881.000	0.61482	0.28646	-2.04928	0.03579
2882.000	0.46656	0.27652	-2.23091	0.03379
2883.000	0.36969	0.33620	-2.44012	0.02186
2884.000	0.31039	0.29244	-2.52103	0.13913
2885.000	0.27480	0.39191	-2.54076	0.23253
2886.000	0.27282	0.43766	-2.56049	0.25042
2887.000	0.37760	0.47346	-2.65124	0.23251
2888.000	0.37167	0.40185	-2.58811	0.28221
2889.000	0.43691	0.39389	-2.58022	0.31202
2890.000	0.49424	0.40980	-2.51511	0.29415
2891.000	0.52389	0.38593	-2.51905	0.25440
2892.000	0.56145	0.41577	-2.44407	0.11329
2893.000	0.60494	0.33619	-2.46972	0.22062
2894.000	0.58913	0.28845	-2.52892	0.04571
2895.000	0.57727	0.35808	-2.51511	0.14310
2896.000	0.54168	0.35609	-2.58417	0.03776
2897.000	0.49819	0.30835	-2.59008	0.07552
2898.000	0.47249	0.29045	-2.58219	-0.00199
2899.000	0.43296	0.33421	-2.62165	0.04372
2900.000	0.41121	0.28050	-2.70056	-0.06757
2901.000	0.41912	0.28448	-2.63941	-0.02186
2902.000	0.42702	0.44561	-2.65913	0.03776
2903.000	0.39737	0.39389	-2.70451	0.09539
2904.000	0.44482	0.41776	-2.70845	-0.00397
2905.000	0.47052	0.41378	-2.64730	0.05167
2906.000	0.48633	0.44760	-2.70253	0.15898
2907.000	0.46854	0.46152	-2.66900	0.08744
2908.000	0.48435	0.44362	-2.65913	0.03378
2909.000	0.43296	0.40583	-2.62757	0.10930
2910.000	0.53378	0.46749	-2.67689	0.11129
2911.000	0.51796	0.43566	-2.67097	0.13116
2912.000	0.53575	0.40582	-2.65519	0.13116
2913.000	0.51005	0.51722	-2.63349	0.05763
2914.000	0.50610	0.52120	-2.63152	0.12520
2915.000	0.59506	0.42571	-2.61968	0.05962
2916.000	0.54366	0.49931	-2.62954	-0.03776
2917.000	0.58320	0.51721	-2.62362	0.20668
2918.000	0.56145	0.51324	-2.61376	0.06757
2919.000	0.61087	0.48737	-2.63546	0.08744
2920.000	0.56540	0.45157	-2.62757	0.07154
2921.000	0.55552	0.49931	-2.66900	-0.01192
2922.000	0.56936	0.48738	-2.58811	0.08943
2923.000	0.54366	0.48738	-2.58417	-0.00795
2924.000	0.56540	0.44162	-2.54865	-0.03180
2925.000	0.60296	0.47146	-2.59206	-0.02385
2926.000	0.57331	0.50130	-2.60390	0.03975
2927.000	0.56145	0.48141	-2.64138	0.00000
2928.000	0.56145	0.50926	-2.55457	-0.02584
2929.000	0.61285	0.47743	-2.63743	-0.02385
2930.000	0.58715	0.52915	-2.51313	-0.05963
2931.000	0.57133	0.49135	-2.59995	-0.05962
2932.000	0.60692	0.48538	-2.62165	-0.00199
2933.000	0.60494	0.53710	-2.57430	0.03180
2934.000	0.57529	0.52119	-2.65124	-0.05763
2935.000	0.59703	0.46549	-2.65124	-0.03776
2936.000	0.58320	0.42770	-2.66900	-0.01789
2937.000	0.60494	0.50528	-2.61179	-0.04770
2938.000	0.61878	0.56694	-2.61771	-0.01192
2939.000	0.59308	0.50926	-2.64138	-0.02584
2940.000	0.59506	0.54108	-2.61968	-0.04173
2941.000	0.58913	0.51522	-2.57430	0.02385
2942.000	0.63262	0.61070	-2.65322	0.00199
2943.000	0.66227	0.57091	-2.62165	0.05366
2944.000	0.62273	0.50328	-2.64138	0.03378
2945.000	0.61482	0.58484	-2.62954	0.00596
2946.000	0.64843	0.54704	-2.65322	0.04571
2947.000	0.60099	0.57291	-2.67097	-0.02583
2948.000	0.66424	0.45753	-2.59403	-0.05763
2949.000	0.59506	0.56296	-2.63546	0.08148
2950.000	0.61087	0.55301	-2.62165	-0.06360
2951.000	0.62668	0.49732	-2.62165	0.01789
2952.000	0.56936	0.45157	-2.67492	0.00795
2953.000	0.54959	0.54506	-2.66111	-0.06956
2954.000	0.56145	0.39786	-2.67689	-0.03776
2955.000	0.60099	0.44759	-2.67886	-0.02981
2956.000	0.59901	0.37797	-2.66308	-0.07154
2957.000	0.59901	0.48936	-2.69859	0.02385
2958.000	0.60692	0.43168	-2.62757	0.04173
2959.000	0.59901	0.42173	-2.66111	0.07750
2960.000	0.55750	0.37200	-2.62165	0.00596
2961.000	0.60296	0.40582	-2.65913	-0.00596
2962.000	0.64448	0.42570	-2.63941	0.03577
2963.000	0.64052	0.37200	-2.69464	-0.02385
2964.000	0.64250	0.34614	-2.69267	0.05763
2965.000	0.57529	0.32426	-2.63743	-0.01987
2966.000	0.60099	0.32824	-2.68083	0.01987
2967.000	0.53971	0.31431	-2.66505	0.04571
2968.000	0.61087	0.37200	-2.60587	0.05167
2969.000	0.63657	0.37995	-2.63152	0.02981
2970.000	0.62668	0.42173	-2.64138	0.08347
2971.000	0.64250	0.46947	-2.60784	-0.00397
2972.000	0.69192	0.43565	-2.64138	-0.01590
2973.000	0.60889	0.45952	-2.62362	0.12322
2974.000	0.67610	0.47543	-2.71437	-0.05564
2975.000	0.64843	0.52914	-2.62362	0.07154
2976.000	0.70180	0.54704	-2.57430	0.09738
2977.000	0.65238	0.48140	-2.63546	0.02186
2978.000	0.72552	0.51720	-2.62362	0.02186
2979.000	0.67215	0.54505	-2.66505	0.03975
2980.000	0.71366	0.52118	-2.59008	0.06360
2981.000	0.71959	0.51720	-2.61376	0.05962
2982.000	0.74529	0.53709	-2.59995	0.05366
2983.000	0.67413	0.55500	-2.67492	0.08148
2984.000	0.71168	0.58682	-2.63941	0.17488
2985.000	0.68006	0.52914	-2.67294	0.05564
2986.000	0.64448	0.55301	-2.60390	0.19079
2987.000	0.71761	0.56892	-2.61179	0.20072
2988.000	0.70971	0.55499	-2.63546	0.16892
2989.000	0.62866	0.57290	-2.60390	0.15303
2990.000	0.70773	0.58483	-2.58022	0.17291
2991.000	0.69192	0.58483	-2.60390	0.20669
2992.000	0.72750	0.60671	-2.61179	0.12918
2993.000	0.68994	0.61268	-2.65716	0.17091
2994.000	0.66424	0.61268	-2.61968	0.17489
2995.000	0.73540	0.61864	-2.60587	0.17688
2996.000	0.75715	0.64449	-2.66703	0.10731
2997.000	0.66424	0.54704	-2.57825	0.15303
2998.000	0.65436	0.60075	-2.61179	0.16893
2999.000	0.62866	0.56694	-2.62757	0.13315
3000.000	0.64448	0.51721	-2.66505	0.01590
3001.000	0.60889	0.48339	-2.58022	0.12123
3002.000	0.61680	0.56495	-2.63349	0.13116
3003.000	0.61285	0.49931	-2.63546	0.01789
3004.000	0.61087	0.48538	-2.60981	0.05167
3005.000	0.57331	0.49931	-2.57627	0.06161
3006.000	0.60099	0.44958	-2.60192	0.01987
3007.000	0.60692	0.47146	-2.64927	0.09340
3008.000	0.63459	0.44361	-2.64927	0.10135
3009.000	0.64052	0.42372	-2.65716	0.09738
3010.000	0.63459	0.46151	-2.60192	0.08546
3011.000	0.63459	0.38791	-2.60192	0.07751
3012.000	0.61680	0.40581	-2.59600	0.20669
3013.000	0.56145	0.37598	-2.69070	0.04571
3014.000	0.61878	0.40581	-2.59008	0.08943
3015.000	0.67215	0.42968	-2.59008	0.06757
3016.000	0.64052	0.40979	-2.63349	0.14905
3017.000	0.66424	0.40979	-2.62757	0.10533
3018.000	0.63459	0.41974	-2.60981	0.10334
3019.000	0.57924	0.32824	-2.58022	0.04372
3020.000	0.59506	0.36603	-2.62757	0.07751
3021.000	0.64250	0.36603	-2.59798	0.10136
3022.000	0.62866	0.38194	-2.59403	0.08546
3023.000	0.66029	0.42570	-2.63743	0.05565
3024.000	0.59506	0.30635	-2.61179	0.05167
3025.000	0.62866	0.35210	-2.66703	0.12917
3026.000	0.62273	0.36802	-2.61573	0.11725
3027.000	0.70773	0.41973	-2.58022	0.08745
3028.000	0.67610	0.42371	-2.57035	0.13912
3029.000	0.64250	0.43565	-2.61573	0.15303
3030.000	0.57727	0.35808	-2.57035	0.07950
3031.000	0.59703	0.50329	-2.62757	0.12322
3032.000	0.62273	0.44958	-2.63349	0.12520
3033.000	0.57133	0.43765	-2.61179	0.23451
3034.000	0.68599	0.48935	-2.57825	0.20868
3035.000	0.62471	0.51323	-2.59206	0.16098
3036.000	0.64250	0.52119	-2.64335	0.13911
3037.000	0.67215	0.53710	-2.64335	0.14309
3038.000	0.66424	0.57091	-2.63941	0.16097
3039.000	0.64052	0.66241	-2.63152	0.25040
3040.000	0.64645	0.63456	-2.61771	0.25836
3041.000	0.65634	0.66440	-2.60390	0.23252
3042.000	0.62075	0.57092	-2.62954	0.18681
3043.000	0.62471	0.48140	-2.58614	0.23650
3044.000	0.63064	0.66838	-2.61573	0.18681
3045.000	0.67413	0.59279	-2.61968	0.17290
3046.000	0.67017	0.62263	-2.68281	0.28020
3047.000	0.61878	0.68032	-2.61968	0.20867
3048.000	0.68401	0.63058	-2.61376	0.26233
3049.000	0.63064	0.61269	-2.63152	0.24245
3050.000	0.62471	0.62462	-2.61968	0.34381
3051.000	0.57133	0.58087	-2.58417	0.13316
3052.000	0.65436	0.65246	-2.58417	0.18483
3053.000	0.61482	0.58285	-2.64335	0.21860
3054.000	0.68006	0.60273	-2.61573	0.21662
3055.000	0.70773	0.67235	-2.58811	0.19278
3056.000	0.65634	0.57091	-2.61968	0.21662
3057.000	0.67610	0.63655	-2.63152	0.21662
3058.000	0.67413	0.62660	-2.67294	0.20668
3059.000	0.68796	0.58881	-2.60981	0.21662
3060.000	0.63657	0.54307	-2.59600	0.26432
3061.000	0.62471	0.60075	-2.60192	0.28618
3062.000	0.55354	0.61866	-2.60390	0.24246
3063.000	0.54366	0.56893	-2.63546	0.23450
3064.000	0.63262	0.62064	-2.65519	0.23847
3065.000	0.57924	0.58484	-2.63152	0.19675
3066.000	0.58122	0.55501	-2.62757	0.18681
3067.000	0.67215	0.62064	-2.64533	0.18085
3068.000	0.61285	0.57092	-2.65716	0.22655
3069.000	0.69389	0.68627	-2.63941	0.17091
3070.000	0.68599	0.63058	-2.65913	0.16097
3071.000	0.73936	0.73798	-2.71634	0.18680
3072.000	0.69587	0.68031	-2.64335	0.14507
3073.000	0.68599	0.66439	-2.64138	0.21066
3074.000	0.72354	0.76980	-2.59798	0.19874
3075.000	0.66820	0.70020	-2.63546	0.24444
3076.000	0.71564	0.69025	-2.58811	0.27823
3077.000	0.65041	0.69026	-2.63349	0.24047
3078.000	0.65634	0.77379	-2.65519	0.26828
3079.000	0.68401	0.71412	-2.62560	0.16694
3080.000	0.71959	0.68826	-2.67886	0.21462
3081.000	0.60889	0.64650	-2.68083	0.17687
3082.000	0.68006	0.66241	-2.60981	0.22855
3083.000	0.67610	0.67832	-2.56444	0.16694
3084.000	0.64448	0.71810	-2.63941	0.24245
3085.000	0.69982	0.61467	-2.60390	0.20867
3086.000	0.63855	0.60871	-2.59008	0.17092
3087.000	0.67413	0.69224	-2.56641	0.15105
3088.000	0.68006	0.64848	-2.56444	0.29613
3089.000	0.65634	0.69224	-2.56838	0.28818
3090.000	0.59110	0.60672	-2.59798	0.24842
3091.000	0.62471	0.64053	-2.55654	0.18483
3092.000	0.62866	0.62860	-2.60981	0.16694
3093.000	0.58913	0.64452	-2.53089	0.23452
3094.000	0.64250	0.62860	-2.54668	0.14111
3095.000	0.61087	0.64650	-2.56246	0.19278
3096.000	0.56738	0.64054	-2.55062	0.26234
3097.000	0.65238	0.70816	-2.59008	0.17887
3098.000	0.64250	0.58086	-2.56444	0.19079
3099.000	0.60099	0.64253	-2.55654	0.24843
3100.000	0.59703	0.70419	-2.53484	0.26632
3101.000	0.55947	0.66043	-2.59008	0.31798
3102.000	0.54761	0.74000	-2.55457	0.40544
3103.000	0.57924	0.76386	-2.55457	0.34581
3104.000	0.58517	0.73800	-2.62362	0.32393
3105.000	0.64052	0.76385	-2.66308	0.29610
3106.000	0.62273	0.81954	-2.68478	0.29809
3107.000	0.71564	0.78373	-2.76368	0.26826
3108.000	0.69587	0.85533	-2.68675	0.35571
3109.000	0.73343	0.90306	-2.70451	0.38552
3110.000	0.83621	0.92491	-2.74790	0.50671
3111.000	0.77889	0.88515	-2.79129	0.53848
3112.000	0.78087	0.86924	-2.82680	0.59012
3113.000	0.83424	0.85331	-2.79721	0.67160
3114.000	0.81249	0.87520	-2.84060	0.78879
3115.000	0.83819	0.88315	-2.86032	0.81261
3116.000	0.84807	0.98258	-2.78341	0.88220
3117.000	0.95085	1.16748	-2.78932	0.87822
3118.000	0.90144	1.22317	-2.84257	0.74707
3119.000	1.05758	1.43782	-2.87018	0.45103
3120.000	0.99829	1.52332	-2.89976	-0.09537
3121.000	1.06943	1.28673	-2.94709	0.58211
3122.000	1.11094	0.72398	-3.03778	1.77747
3123.000	1.22951	1.30454	-2.93328	3.04691
3124.000	1.40932	2.43486	-2.82482	4.46965
3125.000	1.62861	3.97288	-2.95300	6.11390
3126.000	1.87551	5.81581	-3.12058	7.66157
3127.000	13.70030	4.23868	-3.64462	9.01604
3128.000	-8.26537	8.46078	NaN	NaN
3129.000	-8.48596	9.74327	NaN	NaN
3130.000	NaN	NaN	NaN	NaN
3131.000	NaN	NaN	NaN	NaN
3132.000	NaN	NaN	NaN	NaN
3133.000	NaN	NaN	NaN	NaN
3134.000	NaN	NaN	NaN	NaN
3135.000	NaN	NaN	NaN	NaN
3136.000	NaN	NaN	NaN	NaN
3137.000	NaN	NaN	NaN	NaN
3138.000	NaN	NaN	NaN	NaN
3139.000	NaN	NaN	NaN	NaN
3140.000	NaN	NaN	NaN	NaN
3141.000	NaN	NaN	NaN	NaN
3142.000	NaN	NaN	NaN	NaN
3143.000	NaN	NaN	NaN	NaN
3144.000	NaN	NaN	NaN	NaN
3145.000	NaN	NaN	NaN	NaN
3146.000	NaN	NaN	NaN	NaN
3147.000	NaN	NaN	NaN	NaN
3148.000	NaN	NaN	NaN	NaN
3149.000	NaN	NaN	NaN	NaN
3150.000	NaN	NaN	NaN	NaN
3151.000	NaN	NaN	NaN	NaN
3152.000	NaN	NaN	NaN	NaN
3153.000	NaN	NaN	NaN	NaN
3154.000	NaN	NaN	NaN	NaN
3155.000	NaN	NaN	NaN	NaN
3156.000	NaN	NaN	NaN	NaN
3157.000	NaN	NaN	NaN	NaN
3158.000	NaN	NaN	NaN	NaN
3159.000	NaN	NaN	NaN	NaN
3160.000	NaN	NaN	NaN	NaN
3161.000	NaN	NaN	NaN	NaN
3162.000	NaN	NaN	NaN	NaN
3163.000	NaN	NaN	NaN	NaN
3164.000	NaN	NaN	NaN	NaN
3165.000	NaN	NaN	NaN	NaN
3166.000	NaN	NaN	NaN	NaN
3167.000	NaN	NaN	NaN	NaN
3168.000	NaN	NaN	NaN	NaN
3169.000	NaN	NaN	NaN	NaN
3170.000	NaN	NaN	NaN	NaN
3171.000	NaN	NaN	NaN	NaN
3172.000	NaN	NaN	NaN	NaN
3173.000	NaN	NaN	NaN	NaN
3174.000	NaN	NaN	NaN	NaN
3175.000	NaN	NaN	NaN	NaN
3176.000	NaN	NaN	NaN	NaN
3177.000	NaN	NaN	NaN	NaN
3178.000	NaN	NaN	NaN	NaN
3179.000	NaN	NaN	NaN	NaN
3180.000	NaN	NaN	NaN	NaN
3181.000	NaN	NaN	NaN	NaN
3182.000	NaN	NaN	NaN	NaN
3183.000	NaN	NaN	NaN	NaN
3184.000	NaN	NaN	NaN	NaN
3185.000	NaN	NaN	NaN	NaN
3186.000	NaN	NaN	NaN	NaN
3187.000	NaN	NaN	NaN	NaN
3188.000	NaN	NaN	NaN	NaN
3189.000	NaN	NaN	NaN	NaN
3190.000	NaN	NaN	NaN	NaN
3191.000	NaN	NaN	NaN	NaN
3192.000	NaN	NaN	NaN	NaN
3193.000	NaN	NaN	NaN	NaN
3194.000	NaN	NaN	NaN	NaN
3195.000	NaN	NaN	NaN	NaN
3196.000	NaN	NaN	NaN	NaN
3197.000	NaN	NaN	NaN	NaN
3198.000	NaN	NaN	NaN	NaN
3199.000	NaN	NaN	NaN	NaN
3200.000	NaN	NaN	NaN	NaN
3201.000	NaN	NaN	NaN	NaN
3202.000	NaN	NaN	NaN	NaN
3203.000	NaN	NaN	NaN	NaN
3204.000	NaN	NaN	NaN	NaN
3205.000	NaN	NaN	NaN	NaN
3206.000	NaN	NaN	NaN	NaN
3207.000	NaN	NaN	NaN	NaN
3208.000	NaN	NaN	NaN	NaN
3209.000	NaN	NaN	NaN	NaN
3210.000	NaN	NaN	NaN	NaN
3211.000	NaN	NaN	NaN	NaN
3212.000	NaN	NaN	NaN	NaN
3213.000	NaN	NaN	NaN	NaN
3214.000	NaN	NaN	NaN	NaN
3215.000	NaN	NaN	NaN	NaN
3216.000	NaN	NaN	NaN	NaN
3217.000	NaN	NaN	NaN	NaN
3218.000	NaN	NaN	NaN	NaN
3219.000	NaN	NaN	NaN	NaN
3220.000	NaN	NaN	NaN	NaN
3221.000	NaN	NaN	NaN	NaN
3222.000	NaN	NaN	NaN	NaN
3223.000	NaN	NaN	NaN	NaN
3224.000	NaN	NaN	NaN	NaN
3225.000	NaN	NaN	NaN	NaN
3226.000	NaN	NaN	NaN	NaN
3227.000	NaN	NaN	NaN	NaN
3228.000	NaN	NaN	NaN	NaN
3229.000	NaN	NaN	NaN	NaN
3230.000	NaN	NaN	NaN	NaN
3231.000	NaN	NaN	NaN	NaN
3232.000	NaN	NaN	NaN	NaN
3233.000	NaN	NaN	NaN	NaN
3234.000	NaN	NaN	NaN	NaN
3235.000	NaN	NaN	NaN	NaN
3236.000	NaN	NaN	NaN	NaN
3237.000	NaN	NaN	NaN	NaN
3238.000	NaN	NaN	NaN	NaN
3239.000	NaN	NaN	NaN	NaN
3240.000	NaN	NaN	NaN	NaN
3241.000	NaN	NaN	NaN	NaN
3242.000	NaN	NaN	NaN	NaN
3243.000	NaN	NaN	NaN	NaN
3244.000	NaN	NaN	NaN	NaN
3245.000	NaN	NaN	NaN	NaN
3246.000	NaN	NaN	NaN	NaN
3247.000	NaN	NaN	NaN	NaN
3248.000	NaN	NaN	NaN	NaN
3249.000	NaN	NaN	NaN	NaN
3250.000	NaN	NaN	NaN	NaN
3251.000	NaN	NaN	NaN	NaN
3252.000	NaN	NaN	NaN	NaN
3253.000	NaN	NaN	NaN	NaN
3254.000	NaN	NaN	NaN	NaN
3255.000	NaN	NaN	NaN	NaN
3256.000	NaN	NaN	NaN	NaN
3257.000	NaN	NaN	NaN	NaN
3258.000	NaN	NaN	NaN	NaN
3259.000	NaN	NaN	NaN	NaN
3260.000	NaN	NaN	NaN	NaN
3261.000	NaN	NaN	NaN	NaN
3262.000	NaN	NaN	NaN	NaN
3263.000	NaN	NaN	NaN	NaN
3264.000	NaN	NaN	NaN	NaN
3265.000	NaN	NaN	-1.75305	9.83291
3266.000	NaN	NaN	-2.70253	10.14473
3267.000	NaN	NaN	-0.40726	10.52519
3268.000	NaN	NaN	-0.47645	9.84482
3269.000	NaN	NaN	-0.41714	9.11525
3270.000	NaN	NaN	-0.47052	8.54410
3271.000	-2.55457	11.72453	-0.51598	7.85805
3272.000	1.46266	11.14944	-0.45668	7.26382
3273.000	5.56549	9.92649	-0.34202	6.60720
3274.000	5.40093	9.25715	-0.27876	5.95270
3275.000	5.21080	8.57934	-0.20561	5.36762
3276.000	5.08137	7.88620	-0.17398	4.88807
3277.000	4.91853	7.38384	-0.14037	4.47308
3278.000	4.72419	6.61833	-0.03954	4.07544
3279.000	4.50813	6.02865	-0.03361	3.71503
3280.000	4.46490	5.55391	0.00000	3.45345
3281.000	4.32142	5.13806	0.00989	3.22544
3282.000	4.22509	4.73302	0.03756	3.00130
3283.000	4.15823	4.41008	0.04943	2.73737
3284.000	4.12283	4.07875	0.08303	2.61429
3285.000	4.17789	3.85730	0.14432	2.53685
3286.000	4.17199	3.69336	0.18386	2.37799
3287.000	4.20346	3.49361	0.24910	2.32435
3288.000	4.26638	3.37669	0.29062	2.39386
3289.000	4.24082	3.18499	0.24910	2.44947
3290.000	4.27817	3.04044	0.34399	2.62616
3291.000	4.22705	3.18307	0.28666	2.67183
3292.000	4.25065	3.39653	0.34202	2.70159
3293.000	4.22116	3.45597	0.30643	2.72542
3294.000	4.22902	3.52314	0.37563	2.71548
3295.000	4.23492	3.67330	0.35190	2.76908
3296.000	4.19363	3.65769	0.34202	2.81869
3297.000	4.17789	3.72495	0.36376	2.89211
3298.000	4.23295	3.72468	0.32818	2.92784
3299.000	4.28014	3.78372	0.37563	2.90997
3300.000	4.23492	3.72072	0.36376	2.94767
3301.000	4.23295	3.77407	0.35783	2.94767
3302.000	4.22116	3.81364	0.36179	2.96355
3303.000	4.24082	3.84119	0.36772	2.90203
3304.000	4.26245	3.88453	0.36179	2.92982
3305.000	4.26245	3.87466	0.33411	3.03101
3306.000	4.24475	3.88857	0.35190	2.97347
3307.000	4.27621	3.91211	0.30841	2.97745
3308.000	4.22902	3.88667	0.30841	2.97943
3309.000	4.22902	3.86890	0.34004	3.01315
3310.000	4.27031	3.89832	0.33411	3.03498
3311.000	4.24475	3.86685	0.28271	3.04888
3312.000	4.23689	3.94983	0.34993	3.01117
3313.000	4.22509	3.91434	0.34004	3.02307
3314.000	4.27031	3.97137	0.30248	3.07664
3315.000	4.28800	3.95746	0.31632	3.11235
3316.000	4.25458	3.97540	0.29457	3.01912
3317.000	4.28997	3.97720	0.33411	3.09449
3318.000	4.28407	4.00684	0.32620	3.03895
3319.000	4.24868	4.02282	0.31434	2.99729
3320.000	4.24278	3.96559	0.28469	3.03301
3321.000	4.25655	3.98724	0.31434	3.02506
3322.000	4.25851	4.06028	0.29655	3.03102
3323.000	4.22509	3.99925	0.29062	3.06871
3324.000	4.17199	3.93633	0.29457	2.98539
3325.000	4.19559	4.02507	0.29457	3.04292
3326.000	4.18773	3.94613	0.32818	3.02506
3327.000	4.17396	3.96199	0.28271	3.11037
3328.000	4.13660	3.93848	0.28073	3.06078
3329.000	4.14643	3.92658	0.31434	3.04490
3330.000	4.12873	3.90692	0.33213	3.10639
3331.000	4.11496	3.92081	0.27876	3.06872
3332.000	4.08742	3.83404	0.29655	3.04491
3333.000	4.10906	3.84776	0.27876	3.00920
3334.000	4.06185	3.77884	0.33213	3.01911
3335.000	4.08742	3.83008	0.28864	2.96754
3336.000	4.06382	3.84007	0.28864	2.93579
3337.000	4.10906	3.77269	0.27876	2.94571
3338.000	4.10513	3.77468	0.30643	2.97150
3339.000	4.10316	3.82408	0.34597	2.95363
3340.000	4.11496	3.78056	0.30446	3.06474
3341.000	4.13070	3.74493	0.31236	2.98340
3342.000	4.06185	3.77093	0.30446	2.95761
3343.000	4.06185	3.79069	0.29259	2.96357
3344.000	4.13660	3.82195	0.33016	2.93776
3345.000	4.09529	3.84190	0.31434	2.97348
3346.000	4.15823	3.87913	0.35783	2.97744
3347.000	4.11496	3.89711	0.34399	2.98538
3348.000	4.08349	3.92294	0.31434	2.99927
3349.000	4.07759	3.86371	0.32620	2.91990
3350.000	4.09726	3.86757	0.28073	2.96357
3351.000	4.09333	3.94660	0.34597	2.95363
3352.000	4.12283	3.99779	0.32818	2.97348
3353.000	4.10709	4.01170	0.33806	2.99331
3354.000	4.12283	4.01557	0.38156	2.95163
3355.000	4.16610	3.96993	0.39539	2.99925
3356.000	4.19559	3.96583	0.35190	3.01315
3357.000	4.16413	4.01931	0.38156	2.99132
3358.000	4.13856	4.00759	0.38353	3.01314
3359.000	4.14446	3.93252	0.37365	2.99330
3360.000	4.14840	3.96805	0.36574	2.91989
3361.000	4.08742	4.01574	0.32818	2.95760
3362.000	4.09923	4.00581	0.37563	2.94965
3363.000	4.06382	4.05535	0.39737	2.99131
3364.000	4.12283	4.02544	0.39737	3.05281
3365.000	4.09923	4.05715	0.39144	3.01512
3366.000	4.11693	3.99387	0.35190	3.02307
3367.000	4.10709	3.97813	0.41516	3.01709
3368.000	4.12873	3.95827	0.39935	3.02900
3369.000	4.10709	3.95838	0.44482	3.03494
3370.000	4.06775	4.01584	0.35586	3.07861
3371.000	4.10906	4.06105	0.34795	3.04688
3372.000	4.08546	4.04932	0.40528	3.06471
3373.000	4.12480	4.06492	0.37167	3.03496
3374.000	4.09529	3.99003	0.31829	3.01117
3375.000	4.06382	3.89736	0.34597	2.91593
3376.000	4.10119	4.04727	0.36376	2.93974
3377.000	4.09136	3.92093	0.28666	2.94373
3378.000	4.03628	4.02390	0.32818	2.95364
3379.000	4.02251	4.03976	0.30050	2.88221
3380.000	4.03825	3.97254	0.29259	2.88221
3381.000	4.07956	4.00196	0.30841	2.85839
3382.000	4.06775	3.99017	0.31039	2.89014
3383.000	4.09923	3.98409	0.31829	2.91792
3384.000	4.10316	4.01764	0.27678	2.92984
3385.000	4.14840	4.06677	0.31236	2.89014
3386.000	3.99693	3.89175	0.26096	2.92389
3387.000	4.10316	3.92680	0.32620	2.85442
3388.000	4.08742	4.00784	0.24712	2.85643
3389.000	4.06579	3.99018	0.26294	2.84848
3390.000	4.08349	4.03551	0.28469	2.85840
3391.000	4.09333	3.93672	0.25108	2.86238
3392.000	4.09333	3.90314	0.31829	2.80084
3393.000	4.10119	3.98803	0.30841	2.81474
3394.000	4.09136	3.98413	0.33213	2.83061
3395.000	4.06775	3.92302	0.38353	2.78891
3396.000	4.06972	4.02768	0.35783	2.82663
3397.000	4.09136	4.00782	0.33411	2.78099
3398.000	4.05399	3.96654	0.34399	2.81671
3399.000	4.04021	3.91723	0.36376	2.78098
3400.000	4.07366	3.94867	0.33411	2.81473
3401.000	4.01464	3.87587	0.37365	2.76708
3402.000	4.05792	3.94282	0.31829	2.76710
3403.000	4.04021	3.85994	0.36574	2.92188
3404.000	4.06775	3.91314	0.35586	2.78694
3405.000	4.08349	3.94467	0.37365	2.80281
3406.000	4.03825	3.97649	0.38156	2.82265
3407.000	4.06382	3.94476	0.35586	2.78495
3408.000	4.05399	3.94086	0.35586	2.81274
3409.000	4.05792	3.97244	0.36179	2.80281
3410.000	4.01071	3.93317	0.36179	2.83853
3411.000	4.07169	4.00200	0.35783	2.80281
3412.000	4.02841	4.00221	0.40528	2.84447
3413.000	3.99300	3.95301	0.39935	2.84051
3414.000	4.02054	4.01410	0.39342	2.92385
3415.000	3.99890	3.93520	0.40330	2.93377
3416.000	4.01464	3.98450	0.43889	2.86629
3417.000	4.06382	4.03166	0.41121	2.91194
3418.000	3.92217	3.93557	0.36179	2.97148
3419.000	4.06185	4.04944	0.39737	2.94568
3420.000	4.01071	3.98452	0.35783	2.97545
3421.000	4.00874	3.99638	0.41516	2.96551
3422.000	4.05595	4.02380	0.42505	2.95955
3423.000	4.04415	4.07520	0.39342	3.01115
3424.000	4.01661	4.04769	0.41319	2.99527
3425.000	4.02841	4.09304	0.39144	3.04884
3426.000	4.07759	4.07700	0.39737	2.94964
3427.000	3.99890	4.05962	0.40528	2.96551
3428.000	4.02054	4.08716	0.39342	2.94369
3429.000	4.02841	4.05948	0.40133	2.96353
3430.000	4.07562	4.07109	0.39935	2.91194
3431.000	4.05595	4.04157	0.38946	2.96155
3432.000	4.03431	4.07327	0.36376	3.00124
3433.000	4.05005	4.01988	0.41516	2.98932
3434.000	4.03235	4.01799	0.33609	2.96355
3435.000	3.98316	4.03403	0.41516	2.94170
3436.000	4.02448	4.06147	0.39935	2.99726
3437.000	3.97333	4.06765	0.41319	2.99130
3438.000	4.02448	4.03975	0.37167	2.96156
3439.000	3.98906	4.02413	0.39935	2.95758
3440.000	4.01858	4.03583	0.39935	2.93179
3441.000	4.00874	4.00626	0.36376	2.93974
3442.000	3.99300	4.07348	0.37958	2.95560
3443.000	3.96742	4.01633	0.41319	2.94765
3444.000	4.01858	4.02991	0.34202	2.94173
3445.000	4.04612	4.03569	0.39342	2.86234
3446.000	4.03825	4.02586	0.38749	2.91393
3447.000	3.94775	4.04803	0.40528	2.95956
3448.000	4.02644	4.08318	0.47249	2.87223
3449.000	3.98710	4.07351	0.39144	2.98338
3450.000	4.02251	4.04174	0.38353	2.93378
3451.000	4.01858	4.06348	0.39935	2.91393
3452.000	3.98710	4.07745	0.41121	2.87622
3453.000	4.04612	4.07519	0.43691	2.98733
3454.000	3.98513	4.08931	0.36574	2.90005
3455.000	4.01661	4.06151	0.41121	2.96750
3456.000	4.00284	4.09712	0.38946	2.98139
3457.000	4.00087	4.04974	0.40528	2.95163
3458.000	4.03825	4.14038	0.40330	2.97742
3459.000	4.03431	4.12263	0.41714	2.95559
3460.000	4.04021	4.11470	0.37958	2.89409
3461.000	3.95168	4.10922	0.35783	2.97942
3462.000	4.03431	4.10881	0.42505	2.90995
3463.000	3.99890	4.10701	0.37760	2.90600
3464.000	4.03628	4.12854	0.36969	2.93577
3465.000	3.97136	4.02224	0.40330	2.94567
3466.000	4.05202	4.07318	0.33609	2.89609
3467.000	3.99300	4.01028	0.41714	2.92583
3468.000	3.98316	4.05378	0.38946	2.91790
3469.000	4.00874	4.09117	0.41319	2.89805
3470.000	4.01267	4.03586	0.42109	2.92781
3471.000	4.04612	4.06136	0.39342	2.91393
3472.000	3.99103	4.05374	0.39737	2.94568
3473.000	4.04021	4.08114	0.34399	2.93577
3474.000	4.01267	4.06548	0.37563	2.94172
3475.000	3.98906	4.03203	0.38749	2.99330
3476.000	3.99300	4.05373	0.45075	2.94169
3477.000	3.94971	4.07171	0.41714	2.97345
3478.000	3.99693	4.05371	0.39144	2.93973
3479.000	3.96349	4.08152	0.34597	2.94966
3480.000	4.01071	4.04969	0.40528	2.93377
3481.000	3.98710	4.01624	0.41714	2.97146
3482.000	4.01071	4.03192	0.43296	3.00320
3483.000	4.00087	4.10700	0.44877	2.98137
3484.000	3.98513	4.03995	0.46656	2.99327
3485.000	4.01267	4.02796	0.45272	2.90796
3486.000	3.93004	4.00071	0.45075	2.94367
3487.000	3.99300	4.04978	0.46261	3.02303
3488.000	3.96545	4.04202	0.43889	2.95955
3489.000	4.02644	4.09305	0.34597	2.93776
3490.000	3.92610	3.93555	0.39539	2.95560
3491.000	3.89855	3.96926	0.42307	2.95162
3492.000	3.92217	4.03630	0.43098	2.95558
3493.000	3.91823	4.03040	0.39935	2.87027
3494.000	3.90249	3.95146	0.39737	2.84249
3495.000	3.94971	3.97494	0.38353	2.84647
3496.000	3.88084	3.96539	0.42702	2.75317
3497.000	3.92413	4.02444	0.39144	2.75120
3498.000	3.98710	4.01031	0.42702	2.80081
3499.000	3.90446	3.94948	0.41714	2.80478
3500.000	3.97333	4.03803	0.36179	2.83853
3501.000	3.92610	3.97900	0.34993	2.82266
3502.000	3.93594	3.98093	0.31039	2.86435
3503.000	3.98710	4.02216	0.31632	2.84252
3504.000	3.97136	4.05186	0.25305	2.89810
3505.000	3.97136	4.03606	0.24317	2.93778
3506.000	3.98906	4.07350	0.23526	2.88223
3507.000	4.02251	4.05556	0.16804	2.94375
3508.000	4.00677	4.17805	0.20363	2.94970
3509.000	4.05989	4.13237	0.10478	2.92987
3510.000	4.15430	4.30950	0.05733	3.08660
3511.000	4.19363	4.40791	-0.02372	2.95368
3512.000	4.17789	4.11794	-0.05733	2.60437
3513.000	4.51795	3.60476	-0.02966	2.64010
3514.000	4.54153	4.17909	-0.17991	4.10511
3515.000	4.48258	6.00924	-0.66622	5.64324
3516.000	4.40398	8.01836	-1.14256	7.24305
3517.000	NaN	NaN	-1.75503	9.42894
3518.000	NaN	NaN	NaN	NaN
3519.000	NaN	NaN	NaN	NaN
3520.000	NaN	NaN	NaN	NaN
3521.000	NaN	NaN	NaN	NaN
3522.000	NaN	NaN	NaN	NaN
3523.000	NaN	NaN	NaN	NaN
3524.000	NaN	NaN	NaN	NaN
3525.000	NaN	NaN	NaN	NaN
3526.000	NaN	NaN	NaN	NaN
3527.000	NaN	NaN	NaN	NaN
3528.000	NaN	NaN	NaN	NaN
3529.000	NaN	NaN	NaN	NaN
3530.000	NaN	NaN	NaN	NaN
3531.000	NaN	NaN	NaN	NaN
3532.000	NaN	NaN	NaN	NaN
3533.000	NaN	NaN	NaN	NaN
3534.000	NaN	NaN	NaN	NaN
3535.000	NaN	NaN	NaN	NaN
3536.000	NaN	NaN	NaN	NaN
3537.000	NaN	NaN	NaN	NaN
3538.000	NaN	NaN	NaN	NaN
3539.000	NaN	NaN	NaN	NaN
3540.000	NaN	NaN	NaN	NaN
3541.000	NaN	NaN	NaN	NaN
3542.000	NaN	NaN	NaN	NaN
3543.000	NaN	NaN	NaN	NaN
3544.000	NaN	NaN	NaN	NaN
3545.000	NaN	NaN	NaN	NaN
3546.000	NaN	NaN	NaN	NaN
3547.000	NaN	NaN	NaN	NaN
3548.000	NaN	NaN	NaN	NaN
3549.000	NaN	NaN	NaN	NaN
3550.000	NaN	NaN	NaN	NaN
3551.000	NaN	NaN	NaN	NaN
3552.000	NaN	NaN	NaN	NaN
3553.000	NaN	NaN	NaN	NaN
3554.000	NaN	NaN	NaN	NaN
3555.000	NaN	NaN	NaN	NaN
3556.000	NaN	NaN	NaN	NaN
3557.000	NaN	NaN	NaN	NaN
3558.000	NaN	NaN	NaN	NaN
3559.000	NaN	NaN	NaN	NaN
3560.000	NaN	NaN	NaN	NaN
3561.000	NaN	NaN	NaN	NaN
3562.000	NaN	NaN	NaN	NaN
3563.000	NaN	NaN	NaN	NaN
3564.000	NaN	NaN	NaN	NaN
3565.000	NaN	NaN	NaN	NaN
3566.000	NaN	NaN	NaN	NaN
3567.000	NaN	NaN	NaN	NaN
3568.000	NaN	NaN	NaN	NaN
3569.000	NaN	NaN	NaN	NaN
3570.000	NaN	NaN	NaN	NaN
3571.000	NaN	NaN	NaN	NaN
3572.000	NaN	NaN	NaN	NaN
3573.000	NaN	NaN	NaN	NaN
3574.000	NaN	NaN	NaN	NaN
3575.000	NaN	NaN	NaN	NaN
3576.000	NaN	NaN	NaN	NaN
3577.000	NaN	NaN	NaN	NaN
3578.000	NaN	NaN	NaN	NaN
3579.000	NaN	NaN	NaN	NaN
3580.000	NaN	NaN	NaN	NaN
3581.000	NaN	NaN	NaN	NaN
3582.000	NaN	NaN	NaN	NaN
3583.000	NaN	NaN	NaN	NaN
3584.000	NaN	NaN	NaN	NaN
3585.000	NaN	NaN	NaN	NaN
3586.000	NaN	NaN	NaN	NaN
3587.000	NaN	NaN	NaN	NaN
3588.000	NaN	NaN	NaN	NaN
3589.000	NaN	NaN	NaN	NaN
3590.000	NaN	NaN	NaN	NaN
3591.000	NaN	NaN	NaN	NaN
3592.000	NaN	NaN	NaN	NaN
3593.000	NaN	NaN	NaN	NaN
3594.000	NaN	NaN	NaN	NaN
3595.000	NaN	NaN	NaN	NaN
3596.000	NaN	NaN	NaN	NaN
3597.000	NaN	NaN	NaN	NaN
3598.000	NaN	NaN	NaN	NaN
3599.000	NaN	NaN	NaN	NaN
3600.000	NaN	NaN	NaN	NaN
3601.000	NaN	NaN	NaN	NaN
3602.000	NaN	NaN	NaN	NaN
3603.000	NaN	NaN	NaN	NaN
3604.000	NaN	NaN	NaN	NaN
3605.000	NaN	NaN	NaN	NaN
3606.000	NaN	NaN	NaN	NaN
3607.000	NaN	NaN	NaN	NaN
3608.000	NaN	NaN	NaN	NaN
3609.000	NaN	NaN	NaN	NaN
3610.000	NaN	NaN	NaN	NaN
3611.000	NaN	NaN	NaN	NaN
3612.000	NaN	NaN	NaN	NaN
3613.000	NaN	NaN	NaN	NaN
3614.000	NaN	NaN	NaN	NaN
3615.000	NaN	NaN	NaN	NaN
3616.000	NaN	NaN	NaN	NaN
3617.000	NaN	NaN	NaN	NaN
3618.000	NaN	NaN	NaN	NaN
3619.000	NaN	NaN	NaN	NaN
3620.000	NaN	NaN	NaN	NaN
3621.000	NaN	NaN	NaN	NaN
3622.000	NaN	NaN	NaN	NaN
3623.000	NaN	NaN	NaN	NaN
3624.000	NaN	NaN	NaN	NaN
3625.000	NaN	NaN	NaN	NaN
3626.000	NaN	NaN	NaN	NaN
3627.000	NaN	NaN	NaN	NaN
3628.000	NaN	NaN	NaN	NaN
3629.000	NaN	NaN	NaN	NaN
3630.000	NaN	NaN	NaN	NaN
3631.000	NaN	NaN	NaN	NaN
3632.000	NaN	NaN	NaN	NaN
3633.000	NaN	NaN	NaN	NaN
3634.000	NaN	NaN	NaN	NaN
3635.000	NaN	NaN	NaN	NaN
3636.000	NaN	NaN	NaN	NaN
3637.000	NaN	NaN	NaN	NaN
3638.000	NaN	NaN	NaN	NaN
3639.000	NaN	NaN	NaN	NaN
3640.000	NaN	NaN	NaN	NaN
3641.000	NaN	NaN	NaN	NaN
3642.000	NaN	NaN	NaN	NaN
3643.000	NaN	NaN	NaN	NaN
3644.000	NaN	NaN	NaN	NaN
3645.000	NaN	NaN	NaN	NaN
3646.000	NaN	NaN	NaN	NaN
3647.000	NaN	NaN	-2.46578	12.01464
3648.000	NaN	NaN	-1.54564	11.43972
3649.000	NaN	NaN	-0.61680	10.57292
3650.000	NaN	NaN	-0.66424	9.96612
3651.000	NaN	NaN	-0.63262	9.41723
3652.000	-4.68491	13.05215	-0.58122	8.85302
3653.000	0.13048	12.50792	-0.63064	8.21677
3654.000	5.16374	11.15082	-0.65634	7.62151
3655.000	5.00290	10.54947	-0.57133	7.11683
3656.000	4.93815	9.99974	-0.57924	6.50488
3657.000	4.78505	9.36819	-0.56540	6.04496
3658.000	4.62992	8.79211	-0.52389	5.60595
3659.000	4.51402	8.08911	-0.55750	5.05963
3660.000	4.40987	7.54318	-0.44679	4.62517
3661.000	4.28014	6.93533	-0.47447	4.25933
3662.000	4.16216	6.35105	-0.40923	3.76644
3663.000	4.06185	5.81814	-0.37167	3.46527
3664.000	3.93594	5.35507	-0.42307	3.11429
3665.000	3.74700	5.11411	-0.29259	2.71749
3666.000	3.61509	4.63785	-0.30050	2.52094
3667.000	3.55010	4.19604	-0.30841	2.22701
3668.000	3.41222	3.85874	-0.27678	2.05220
3669.000	3.42010	3.60757	-0.24317	1.82766
3670.000	3.38464	3.26932	-0.26096	1.66269
3671.000	3.30386	2.99038	-0.24515	1.52155
3672.000	3.31765	2.81205	-0.18781	1.36051
3673.000	3.29401	2.57628	-0.17398	1.25513
3674.000	3.30977	2.37999	-0.14432	1.04831
3675.000	3.26051	2.21948	-0.16014	0.93893
3676.000	3.32750	2.11025	-0.15618	0.87130
3677.000	3.38267	1.96931	-0.14827	0.90313
3678.000	3.27627	1.85842	-0.08501	0.96280
3679.000	3.34130	1.93765	-0.10478	1.13383
3680.000	3.29795	1.89607	-0.08303	1.40625
3681.000	3.28021	1.93579	-0.06129	1.50367
3682.000	3.30386	2.19558	-0.09292	1.54740
3683.000	3.29007	2.36615	-0.10280	1.58716
3684.000	3.23095	2.52887	-0.06129	1.64680
3685.000	3.24080	2.59228	-0.07908	1.59909
3686.000	3.24868	2.62199	-0.09490	1.57523
3687.000	3.25657	2.71116	-0.04152	1.56331
3688.000	3.25854	2.64773	-0.09490	1.63288
3689.000	3.24671	2.68938	-0.09490	1.55734
3690.000	3.26051	2.65962	-0.08501	1.57722
3691.000	3.26248	2.70520	-0.10280	1.55933
3692.000	3.21715	2.66568	-0.12060	1.55535
3693.000	3.22701	2.64385	-0.12455	1.58517
3694.000	3.23095	2.67753	-0.17002	1.57722
3695.000	3.30386	2.69716	-0.12257	1.58517
3696.000	3.22898	2.66961	-0.11862	1.59710
3697.000	3.21715	2.61414	-0.16409	1.54144
3698.000	3.21518	2.55666	-0.16211	1.55933
3699.000	3.22701	2.66367	-0.17398	1.50565
3700.000	3.22504	2.67359	-0.19375	1.53149
3701.000	3.26642	2.64375	-0.17991	1.52951
3702.000	3.20927	2.71327	-0.18584	1.57722
3703.000	3.24080	2.66165	-0.19375	1.55932
3704.000	3.21912	2.68747	-0.20956	1.59908
3705.000	3.23095	2.74492	-0.22735	1.62691
3706.000	3.19153	2.72917	-0.19375	1.65872
3707.000	3.21912	2.69540	-0.21352	1.65872
3708.000	3.20730	2.74300	-0.23922	1.64679
3709.000	3.20533	2.67760	-0.19968	1.58517
3710.000	3.21124	2.72713	-0.26689	1.67660
3711.000	3.19153	2.68556	-0.19572	1.61896
3712.000	3.22504	2.71322	-0.19572	1.69251
3713.000	3.17576	2.71534	-0.25305	1.68853
3714.000	3.16985	2.75102	-0.25701	1.71635
3715.000	3.18365	2.67568	-0.20956	1.69052
3716.000	3.18956	2.73908	-0.29457	1.69846
3717.000	3.17774	2.72128	-0.20363	1.67263
3718.000	3.18956	2.73314	-0.22538	1.75213
3719.000	3.18759	2.69945	-0.22933	1.70841
3720.000	3.22109	2.67954	-0.24119	1.76803
3721.000	3.16591	2.66581	-0.24119	1.66865
3722.000	3.15803	2.65790	-0.25899	1.70045
3723.000	3.15605	2.62025	-0.23724	1.73027
3724.000	3.14620	2.64604	-0.24515	1.74418
3725.000	3.14817	2.59450	-0.27282	1.71039
3726.000	3.15014	2.70946	-0.23526	1.69250
3727.000	3.16000	2.62816	-0.23922	1.72828
3728.000	3.15803	2.64204	-0.22933	1.67462
3729.000	3.13437	2.61634	-0.24910	1.68058
3730.000	3.11466	2.63423	-0.24910	1.70840
3731.000	3.16788	2.64797	-0.23724	1.65672
3732.000	3.16985	2.64201	-0.25899	1.71834
3733.000	3.12452	2.64213	-0.26492	1.63684
3734.000	3.15211	2.66188	-0.25899	1.60901
3735.000	3.13043	2.66590	-0.22735	1.62293
3736.000	3.19941	2.65780	-0.23724	1.63685
3737.000	3.17576	2.66777	-0.26492	1.61100
3738.000	3.18562	2.61422	-0.23329	1.61498
3739.000	3.16000	2.62420	-0.25108	1.68654
3740.000	3.18759	2.67765	-0.23131	1.65673
3741.000	3.17379	2.71930	-0.25701	1.64678
3742.000	3.17971	2.68560	-0.20165	1.66468
3743.000	3.21321	2.67560	-0.26492	1.66268
3744.000	3.13240	2.65202	-0.27678	1.65672
3745.000	3.18956	2.69152	-0.23724	1.67064
3746.000	3.20139	2.69941	-0.21747	1.65076
3747.000	3.19744	2.62807	-0.27085	1.61696
3748.000	3.19350	2.65186	-0.27085	1.64281
3749.000	3.16197	2.67573	-0.25108	1.70443
3750.000	3.14226	2.68371	-0.27876	1.69647
3751.000	3.20139	2.66175	-0.29655	1.64479
3752.000	3.19350	2.65781	-0.26492	1.67262
3753.000	3.13832	2.64804	-0.27678	1.61696
3754.000	3.17971	2.64001	-0.22340	1.65076
3755.000	3.15408	2.66782	-0.30050	1.66467
3756.000	3.18168	2.65190	-0.27876	1.73026
3757.000	3.18562	2.61819	-0.27678	1.66268
3758.000	3.15408	2.72134	-0.25108	1.68455
3759.000	3.15014	2.67180	-0.22933	1.70443
3760.000	3.15803	2.68763	-0.24712	1.65871
3761.000	3.16788	2.69950	-0.24119	1.67263
3762.000	3.19547	2.65384	-0.24712	1.66865
3763.000	3.17971	2.65983	-0.29259	1.63684
3764.000	3.14620	2.63415	-0.27876	1.68455
3765.000	3.13634	2.63417	-0.28271	1.68256
3766.000	3.17576	2.62416	-0.28469	1.64479
3767.000	3.15408	2.65395	-0.23329	1.59510
3768.000	3.16000	2.64997	-0.25503	1.64281
3769.000	3.15014	2.68171	-0.25899	1.70443
3770.000	3.16591	2.66581	-0.21747	1.62293
3771.000	3.14817	2.64603	-0.23724	1.65871
3772.000	3.11663	2.65404	-0.23526	1.60305
3773.000	3.13240	2.65797	-0.25899	1.67859
3774.000	3.17971	2.68758	-0.28666	1.69647
3775.000	3.16985	2.67769	-0.28864	1.68455
3776.000	3.12846	2.66987	-0.25899	1.65672
3777.000	3.15408	2.63809	-0.26096	1.65871
3778.000	3.14423	2.70551	-0.23131	1.66865
3779.000	3.13832	2.66390	-0.26887	1.68455
3780.000	3.12452	2.61438	-0.30841	1.61696
3781.000	3.18562	2.63801	-0.25899	1.64281
3782.000	3.17971	2.67172	-0.17200	1.64878
3783.000	3.12649	2.69961	-0.26294	1.65871
3784.000	3.17774	2.70344	-0.20363	1.69450
3785.000	3.19744	2.64591	-0.22538	1.65474
3786.000	3.15408	2.68368	-0.22142	1.66667
3787.000	3.17774	2.66578	-0.25108	1.68256
3788.000	3.11860	2.64214	-0.25701	1.66467
3789.000	3.16000	2.63213	-0.19968	1.62294
3790.000	3.11269	2.63225	-0.21945	1.63486
3791.000	3.13240	2.66590	-0.23922	1.61498
3792.000	3.17182	2.65985	-0.23526	1.70443
3793.000	3.14423	2.69560	-0.18584	1.60902
3794.000	3.13240	2.72139	-0.22340	1.67660
3795.000	3.16197	2.70744	-0.17002	1.69847
3796.000	3.11072	2.63424	-0.18781	1.64878
3797.000	3.10481	2.63821	-0.19177	1.62294
3798.000	3.09692	2.64022	-0.20165	1.64878
3799.000	3.10875	2.66001	-0.17991	1.59113
3800.000	3.16394	2.70942	-0.18584	1.68853
3801.000	3.17971	2.61820	-0.13444	1.70643
3802.000	3.10678	2.68182	-0.10676	1.65674
3803.000	3.13043	2.63220	-0.14432	1.66468
3804.000	3.14226	2.64208	-0.18188	1.71835
3805.000	3.11072	2.63225	-0.20363	1.66667
3806.000	3.13634	2.68571	-0.21154	1.67462
3807.000	3.09692	2.68383	-0.17002	1.65474
3808.000	3.15408	2.70548	-0.17398	1.66866
3809.000	3.10875	2.71551	-0.21154	1.71040
3810.000	3.10875	2.65605	-0.13641	1.71438
3811.000	3.13240	2.68175	-0.17200	1.67661
3812.000	3.13832	2.69759	-0.15816	1.67462
3813.000	3.15605	2.68764	-0.14432	1.65077
3814.000	3.08904	2.64817	-0.21352	1.64679
3815.000	3.08115	2.65611	-0.16607	1.67065
3816.000	3.12846	2.64608	-0.14037	1.72630
3817.000	3.13240	2.65599	-0.18584	1.65673
3818.000	3.12255	2.69565	-0.14037	1.71637
3819.000	3.17182	2.69156	-0.17991	1.68853
3820.000	3.12649	2.70952	-0.17398	1.67860
3821.000	3.10086	2.70958	-0.12653	1.68854
3822.000	3.11466	2.63819	-0.14234	1.72829
3823.000	3.16985	2.67967	-0.14234	1.64679
3824.000	3.10283	2.71156	-0.15816	1.71636
3825.000	3.09692	2.67590	-0.19770	1.64878
3826.000	3.12058	2.75512	-0.13246	1.64083
3827.000	3.06538	2.70571	-0.13048	1.70046
3828.000	3.09692	2.69374	-0.14037	1.75015
3829.000	3.09495	2.67590	-0.19177	1.67661
3830.000	3.11860	2.71548	-0.19572	1.64878
3831.000	3.16985	2.68959	-0.17595	1.67263
3832.000	3.11072	2.70758	-0.18188	1.57722
3833.000	3.10086	2.67589	-0.15618	1.60107
3834.000	3.12255	2.70755	-0.19177	1.62095
3835.000	3.12058	2.75710	-0.14432	1.62095
3836.000	3.10283	2.67588	-0.12060	1.63686
3837.000	3.12255	2.71349	-0.14432	1.65475
3838.000	3.12452	2.71349	-0.17002	1.60505
3839.000	3.10086	2.70364	-0.17595	1.68257
3840.000	3.10086	2.66598	-0.15618	1.58318
3841.000	3.09101	2.67393	-0.18386	1.61896
3842.000	3.10283	2.73138	-0.18979	1.66071
3843.000	3.11466	2.72540	-0.21549	1.60504
3844.000	3.13043	2.71347	-0.18781	1.62095
3845.000	3.11466	2.69369	-0.22142	1.57721
3846.000	3.10086	2.69967	-0.14432	1.56132
3847.000	3.10678	2.70759	-0.15618	1.66270
3848.000	3.13240	2.70356	-0.14630	1.67860
3849.000	3.14226	2.71939	-0.18979	1.65673
3850.000	3.12255	2.75511	-0.15421	1.69450
3851.000	3.06538	2.70769	-0.16014	1.68854
3852.000	3.13043	2.72140	-0.16804	1.68257
3853.000	3.11860	2.72539	-0.14630	1.70444
3854.000	3.07327	2.69181	-0.16211	1.66866
3855.000	3.12255	2.76106	-0.17793	1.68456
3856.000	3.09495	2.72149	-0.15025	1.70046
3857.000	3.13240	2.69761	-0.13641	1.63884
3858.000	3.12846	2.69564	-0.13444	1.63686
3859.000	3.14226	2.69560	-0.20165	1.64480
3860.000	3.15014	2.64801	-0.13641	1.64680
3861.000	3.11663	2.66990	-0.16211	1.66270
3862.000	3.08509	2.69178	-0.13641	1.68257
3863.000	3.08312	2.65611	-0.14630	1.67065
3864.000	3.13634	2.66390	-0.19375	1.71239
3865.000	3.12649	2.68375	-0.16607	1.70245
3866.000	3.12452	2.68970	-0.18979	1.66468
3867.000	3.10875	2.65803	-0.17200	1.66269
3868.000	3.08115	2.67990	-0.19375	1.67462
3869.000	3.09889	2.66598	-0.17398	1.66269
3870.000	3.09298	2.68185	-0.18584	1.65474
3871.000	3.09889	2.70166	-0.17595	1.66269
3872.000	3.13634	2.69364	-0.19572	1.71040
3873.000	3.10086	2.66201	-0.18584	1.59908
3874.000	3.12255	2.68772	-0.20956	1.60107
3875.000	3.10481	2.73534	-0.14827	1.59312
3876.000	3.12846	2.71942	-0.16211	1.61698
3877.000	3.09692	2.74131	-0.09687	1.64083
3878.000	3.12452	2.70754	-0.14827	1.66866
3879.000	3.06932	2.71759	-0.16211	1.68059
3880.000	3.08509	2.73935	-0.15618	1.72829
3881.000	3.13832	2.84227	-0.20956	1.70245
3882.000	3.15014	2.93338	-0.23724	1.73822
3883.000	3.24080	2.95491	-0.31039	1.75808
3884.000	3.35903	2.62765	-0.31434	1.78988
3885.000	3.45359	2.41730	-0.37958	1.69447
3886.000	3.88478	2.77862	-0.38353	1.57719
3887.000	3.77259	4.04293	-0.39737	2.20117
3888.000	3.71353	5.59055	-0.42900	3.60992
3889.000	3.75881	7.52582	-0.69192	5.18777
3890.000	3.77259	9.39582	-0.91527	6.78307
3891.000	NaN	NaN	-1.28484	8.60644
3892.000	NaN	NaN	-1.87551	10.62946
3893.000	NaN	NaN	-7.57492	11.84232
3894.000	NaN	NaN	-10.36168	13.39468
3895.000	NaN	NaN	NaN	NaN
3896.000	NaN	NaN	NaN	NaN
3897.000	NaN	NaN	NaN	NaN
3898.000	NaN	NaN	NaN	NaN
3899.000	NaN	NaN	NaN	NaN
3900.000	NaN	NaN	NaN	NaN
3901.000	NaN	NaN	NaN	NaN
3902.000	NaN	NaN	NaN	NaN
3903.000	NaN	NaN	NaN	NaN
3904.000	NaN	NaN	NaN	NaN
3905.000	NaN	NaN	NaN	NaN
3906.000	NaN	NaN	NaN	NaN
3907.000	NaN	NaN	NaN	NaN
3908.000	NaN	NaN	NaN	NaN
3909.000	NaN	NaN	NaN	NaN
3910.000	NaN	NaN	NaN	NaN
3911.000	NaN	NaN	NaN	NaN
3912.000	NaN	NaN	NaN	NaN
3913.000	NaN	NaN	NaN	NaN
3914.000	NaN	NaN	NaN	NaN
3915.000	NaN	NaN	NaN	NaN
3916.000	NaN	NaN	NaN	NaN
3917.000	NaN	NaN	NaN	NaN
3918.000	NaN	NaN	NaN	NaN
3919.000	NaN	NaN	NaN	NaN
3920.000	NaN	NaN	NaN	NaN
3921.000	NaN	NaN	NaN	NaN
3922.000	NaN	NaN	NaN	NaN
3923.000	NaN	NaN	NaN	NaN
3924.000	NaN	NaN	NaN	NaN
3925.000	NaN	NaN	NaN	NaN
3926.000	NaN	NaN	NaN	NaN
3927.000	NaN	NaN	NaN	NaN
3928.000	NaN	NaN	NaN	NaN
3929.000	NaN	NaN	NaN	NaN
3930.000	NaN	NaN	NaN	NaN
3931.000	NaN	NaN	NaN	NaN
3932.000	NaN	NaN	NaN	NaN
3933.000	NaN	NaN	NaN	NaN
3934.000	NaN	NaN	NaN	NaN
3935.000	NaN	NaN	NaN	NaN
3936.000	NaN	NaN	NaN	NaN
3937.000	NaN	NaN	NaN	NaN
3938.000	NaN	NaN	NaN	NaN
3939.000	NaN	NaN	NaN	NaN
3940.000	NaN	NaN	NaN	NaN
3941.000	NaN	NaN	NaN	NaN
3942.000	NaN	NaN	NaN	NaN
3943.000	NaN	NaN	NaN	NaN
3944.000	NaN	NaN	NaN	NaN
3945.000	NaN	NaN	NaN	NaN
3946.000	NaN	NaN	NaN	NaN
3947.000	NaN	NaN	NaN	NaN
3948.000	NaN	NaN	NaN	NaN
3949.000	NaN	NaN	NaN	NaN
3950.000	NaN	NaN	NaN	NaN
3951.000	NaN	NaN	NaN	NaN
3952.000	NaN	NaN	NaN	NaN
3953.000	NaN	NaN	NaN	NaN
3954.000	NaN	NaN	NaN	NaN
3955.000	NaN	NaN	NaN	NaN
3956.000	NaN	NaN	NaN	NaN
3957.000	NaN	NaN	NaN	NaN
3958.000	NaN	NaN	NaN	NaN
3959.000	NaN	NaN	NaN	NaN
3960.000	NaN	NaN	NaN	NaN
3961.000	NaN	NaN	NaN	NaN
3962.000	NaN	NaN	NaN	NaN
3963.000	NaN	NaN	NaN	NaN
3964.000	NaN	NaN	NaN	NaN
3965.000	NaN	NaN	NaN	NaN
3966.000	NaN	NaN	NaN	NaN
3967.000	NaN	NaN	NaN	NaN
3968.000	NaN	NaN	NaN	NaN
3969.000	NaN	NaN	NaN	NaN
3970.000	NaN	NaN	NaN	NaN
3971.000	NaN	NaN	NaN	NaN
3972.000	NaN	NaN	NaN	NaN
3973.000	NaN	NaN	NaN	NaN
3974.000	NaN	NaN	NaN	NaN
3975.000	NaN	NaN	NaN	NaN
3976.000	NaN	NaN	NaN	NaN
3977.000	NaN	NaN	NaN	NaN
3978.000	NaN	NaN	NaN	NaN
3979.000	NaN	NaN	NaN	NaN
3980.000	NaN	NaN	NaN	NaN
3981.000	NaN	NaN	NaN	NaN
3982.000	NaN	NaN	NaN	NaN
3983.000	NaN	NaN	NaN	NaN
3984.000	NaN	NaN	NaN	NaN
3985.000	NaN	NaN	NaN	NaN
3986.000	NaN	NaN	NaN	NaN
3987.000	NaN	NaN	NaN	NaN
3988.000	NaN	NaN	NaN	NaN
3989.000	NaN	NaN	NaN	NaN
3990.000	NaN	NaN	NaN	NaN
3991.000	NaN	NaN	NaN	NaN
3992.000	NaN	NaN	NaN	NaN
3993.000	NaN	NaN	NaN	NaN
3994.000	NaN	NaN	NaN	NaN
3995.000	NaN	NaN	NaN	NaN
3996.000	NaN	NaN	NaN	NaN
3997.000	NaN	NaN	NaN	NaN
3998.000	NaN	NaN	NaN	NaN
3999.000	NaN	NaN	NaN	NaN
4000.000	NaN	NaN	NaN	NaN
4001.000	NaN	NaN	NaN	NaN
4002.000	NaN	NaN	NaN	NaN
4003.000	NaN	NaN	NaN	NaN
4004.000	NaN	NaN	NaN	NaN
4005.000	NaN	NaN	NaN	NaN
4006.000	NaN	NaN	NaN	NaN
4007.000	NaN	NaN	NaN	NaN
4008.000	NaN	NaN	NaN	NaN
4009.000	NaN	NaN	NaN	NaN
4010.000	NaN	NaN	NaN	NaN
4011.000	NaN	NaN	NaN	NaN
4012.000	NaN	NaN	NaN	NaN
4013.000	NaN	NaN	NaN	NaN
4014.000	NaN	NaN	NaN	NaN
4015.000	NaN	NaN	NaN	NaN
4016.000	NaN	NaN	NaN	NaN
4017.000	NaN	NaN	NaN	NaN
4018.000	NaN	NaN	NaN	NaN
4019.000	NaN	NaN	NaN	NaN
4020.000	NaN	NaN	NaN	NaN
4021.000	NaN	NaN	NaN	NaN
4022.000	NaN	NaN	NaN	NaN
4023.000	NaN	NaN	NaN	NaN
4024.000	NaN	NaN	NaN	NaN
4025.000	NaN	NaN	-2.69070	12.83888
4026.000	NaN	NaN	-1.21963	12.19204
4027.000	NaN	NaN	0.23131	11.10310
4028.000	NaN	NaN	0.18781	10.50232
4029.000	NaN	NaN	0.25503	9.86437
4030.000	4.67902	10.06691	0.29062	9.20651
4031.000	5.26570	11.04031	0.25503	8.62988
4032.000	5.76713	11.57936	0.28666	8.04754
4033.000	5.67318	11.05968	0.35783	7.46936
4034.000	5.55765	10.47133	0.34993	6.91324
4035.000	5.44208	9.88047	0.38946	6.38524
4036.000	5.38330	9.28057	0.37365	5.92115
4037.000	5.25786	8.71618	0.46459	5.50746
4038.000	5.11275	8.16365	0.48238	5.01824
4039.000	5.00879	7.59324	0.47052	4.61725
4040.000	4.84002	7.07644	0.48435	4.22965
4041.000	4.76935	6.45156	0.61878	3.81979
4042.000	4.66920	5.89980	0.60494	3.40371
4043.000	4.53170	5.35491	0.64843	3.06657
4044.000	4.43542	4.89124	0.70180	2.73915
4045.000	4.34698	4.40901	0.65831	2.59824
4046.000	4.22902	3.97159	0.61878	2.34807
4047.000	4.12086	3.70545	0.66820	2.09579
4048.000	4.09529	3.25481	0.65238	1.91102
4049.000	4.02251	2.94246	0.69389	1.70432
4050.000	3.88478	2.73505	0.69389	1.50753
4051.000	3.89462	2.37846	0.66029	1.36838
4052.000	3.89068	2.36064	0.67215	1.15960
4053.000	3.88871	2.14463	0.71761	1.04426
4054.000	3.86313	1.93654	0.74924	0.87720
4055.000	3.88281	1.76994	0.74331	0.79168
4056.000	3.85526	1.69662	0.75715	0.62460
4057.000	3.86313	1.52604	0.77296	0.69422
4058.000	3.89068	1.52996	0.78482	0.78769
4059.000	3.86707	1.41693	0.80063	0.90304
4060.000	3.86313	1.50025	0.83226	1.19535
4061.000	3.84345	1.62723	0.81842	1.37629
4062.000	3.86707	1.88696	0.84214	1.42797
4063.000	3.81393	2.13887	0.79668	1.56713
4064.000	3.81786	2.31724	0.81447	1.50550
4065.000	3.78046	2.36292	0.84412	1.54127
4066.000	3.81983	2.49557	0.82040	1.54128
4067.000	3.81786	2.50152	0.80063	1.57508
4068.000	3.80015	2.53327	0.80261	1.58105
4069.000	3.81983	2.49953	0.81249	1.54526
4070.000	3.80999	2.53126	0.77691	1.63274
4071.000	3.76078	2.44422	0.78284	1.55124
4072.000	3.77653	2.43824	0.81249	1.61483
4073.000	3.77653	2.47192	0.74924	1.59896
4074.000	3.75487	2.41848	0.78284	1.56913
4075.000	3.76078	2.42045	0.77889	1.65261
4076.000	3.74503	2.47597	0.76505	1.65659
4077.000	3.78834	2.45405	0.77691	1.69833
4078.000	3.75684	2.48188	0.72354	1.68642
4079.000	3.74700	2.44426	0.74529	1.73610
4080.000	3.73519	2.44430	0.73145	1.73213
4081.000	3.78046	2.47389	0.73936	1.67648
4082.000	3.73519	2.52950	0.76308	1.67249
4083.000	3.74700	2.52550	0.73540	1.60890
4084.000	3.72731	2.45423	0.72750	1.64468
4085.000	3.71156	2.52957	0.66820	1.52345
4086.000	3.72928	2.50178	0.67413	1.56718
4087.000	3.68991	2.57520	0.66820	1.55525
4088.000	3.72141	2.53350	0.64843	1.56122
4089.000	3.68794	2.47217	0.64843	1.50158
4090.000	3.69188	2.51773	0.63855	1.54532
4091.000	3.72338	2.52755	0.64645	1.62086
4092.000	3.74700	2.47597	0.63855	1.48767
4093.000	3.65053	2.53172	0.67413	1.50158
4094.000	3.71747	2.48001	0.67017	1.53140
4095.000	3.68400	2.47416	0.63855	1.49364
4096.000	3.68794	2.45235	0.67610	1.52941
4097.000	3.65644	2.42271	0.63262	1.52743
4098.000	3.65841	2.47225	0.65436	1.52743
4099.000	3.69975	2.51177	0.61680	1.50756
4100.000	3.67219	2.35132	0.64843	1.56321
4101.000	3.63872	2.40691	0.65436	1.56122
4102.000	3.68203	2.39886	0.65634	1.58110
4103.000	3.69188	2.40478	0.63855	1.53538
4104.000	3.68991	2.38100	0.69982	1.56916
4105.000	3.68203	2.42066	0.66820	1.61091
4106.000	3.64462	2.38509	0.67413	1.60097
4107.000	3.68597	2.40480	0.66820	1.66259
4108.000	3.66431	2.41476	0.65041	1.62682
4109.000	3.68991	2.37704	0.65436	1.63278
4110.000	3.66628	2.37116	0.69587	1.66258
4111.000	3.63675	2.35538	0.68796	1.56916
4112.000	3.66431	2.38107	0.69587	1.58307
4113.000	3.65447	2.39497	0.68599	1.62681
4114.000	3.68794	2.44443	0.72750	1.62679
4115.000	3.63872	2.38312	0.68796	1.62482
4116.000	3.65644	2.44649	0.69982	1.58108
4117.000	3.64462	2.40887	0.68994	1.58307
4118.000	3.65250	2.42074	0.70971	1.60891
4119.000	3.61509	2.41291	0.72157	1.59897
4120.000	3.65447	2.42866	0.70180	1.65463
4121.000	3.62099	2.43470	0.70971	1.61487
4122.000	3.63675	2.42277	0.68994	1.64867
4123.000	3.63675	2.43664	0.73936	1.56517
4124.000	3.62099	2.44659	0.66424	1.59898
4125.000	3.62296	2.42677	0.67610	1.62283
4126.000	3.60918	2.40302	0.65831	1.60097
4127.000	3.64659	2.46238	0.66424	1.59501
4128.000	3.66234	2.44846	0.72750	1.59896
4129.000	3.67613	2.45040	0.70180	1.62481
4130.000	3.62690	2.46441	0.71168	1.60692
4131.000	3.65250	2.43660	0.74726	1.60889
4132.000	3.64462	2.43662	0.70378	1.59698
4133.000	3.64462	2.44256	0.72750	1.62282
4134.000	3.61903	2.45254	0.74529	1.64070
4135.000	3.55798	2.43090	0.73936	1.64269
4136.000	3.59146	2.43280	0.71366	1.57909
4137.000	3.55207	2.42497	0.67808	1.65265
4138.000	3.59540	2.42089	0.71168	1.60692
4139.000	3.64069	2.48419	0.68796	1.66656
4140.000	3.64069	2.45248	0.72157	1.58108
4141.000	3.60721	2.50608	0.67808	1.62283
4142.000	3.63281	2.44458	0.72157	1.58505
4143.000	3.63281	2.51592	0.71959	1.57114
4144.000	3.64856	2.48219	0.67610	1.56916
4145.000	3.66234	2.46431	0.68599	1.56121
4146.000	3.62099	2.48028	0.68401	1.51549
4147.000	3.64856	2.46039	0.70773	1.49163
4148.000	3.61312	2.48427	0.67808	1.50953
4149.000	3.61115	2.47833	0.70971	1.50753
4150.000	3.61903	2.46245	0.68401	1.53934
4151.000	3.61509	2.41490	0.72947	1.53337
4152.000	3.58161	2.46255	0.70180	1.54331
4153.000	3.57373	2.44870	0.71168	1.59499
4154.000	3.61509	2.48228	0.68994	1.51748
4155.000	3.64069	2.49410	0.67413	1.55326
4156.000	3.61115	2.50805	0.64645	1.49165
4157.000	3.62690	2.45252	0.71564	1.50355
4158.000	3.63478	2.52384	0.67610	1.53537
4159.000	3.66825	2.47619	0.69785	1.54928
4160.000	3.65053	2.54361	0.68599	1.55525
4161.000	3.62690	2.49612	0.68203	1.54730
4162.000	3.63084	2.48422	0.66227	1.51947
4163.000	3.61509	2.44859	0.68401	1.57115
4164.000	3.64069	2.45843	0.67610	1.51549
4165.000	3.62887	2.44261	0.68994	1.55326
4166.000	3.65841	2.46036	0.70773	1.57909
4167.000	3.65841	2.47423	0.70971	1.60294
4168.000	3.62690	2.45450	0.70575	1.55524
4169.000	3.62690	2.45648	0.65436	1.60495
4170.000	3.63675	2.48420	0.70773	1.61288
4171.000	3.63478	2.44655	0.73343	1.55921
4172.000	3.64265	2.45644	0.69389	1.60295
4173.000	3.64265	2.47824	0.73540	1.56716
4174.000	3.64856	2.47030	0.66622	1.60892
4175.000	3.65447	2.44055	0.73738	1.57908
4176.000	3.64659	2.43859	0.71168	1.56518
4177.000	3.66234	2.49998	0.72750	1.60493
4178.000	3.59736	2.44864	0.68599	1.54133
4179.000	3.62887	2.50008	0.66622	1.60097
4180.000	3.65447	2.42866	0.70773	1.59301
4181.000	3.65447	2.44254	0.71959	1.60095
4182.000	3.64462	2.45445	0.68203	1.59500
4183.000	3.62296	2.48424	0.70378	1.61885
4184.000	3.64659	2.46436	0.69982	1.53735
4185.000	3.60918	2.49022	0.70971	1.58108
4186.000	3.60524	2.49816	0.74133	1.58703
4187.000	3.64659	2.49408	0.72750	1.58505
4188.000	3.64462	2.50994	0.72947	1.64070
4189.000	3.60130	2.46052	0.74529	1.62678
4190.000	3.60327	2.46646	0.72354	1.57114
4191.000	3.59343	2.42883	0.71564	1.62083
4192.000	3.61903	2.45650	0.75122	1.58305
4193.000	3.64069	2.50401	0.76703	1.54329
4194.000	3.63084	2.51592	0.74529	1.54926
4195.000	3.59933	2.48430	0.69587	1.53735
4196.000	3.56389	2.44278	0.73936	1.57312
4197.000	3.61509	2.46444	0.72354	1.57710
4198.000	3.57176	2.45465	0.72157	1.57511
4199.000	3.55010	2.49633	0.68796	1.56717
4200.000	3.62690	2.50801	0.68401	1.62879
4201.000	3.55798	2.44478	0.71168	1.59102
4202.000	3.63084	2.49809	0.74924	1.62281
4203.000	3.62690	2.43468	0.73738	1.58902
4204.000	3.56979	2.44673	0.75517	1.57510
4205.000	3.62099	2.47830	0.74529	1.58305
4206.000	3.60721	2.46248	0.72750	1.55921
4207.000	3.61509	2.50210	0.75715	1.56516
4208.000	3.60721	2.44861	0.70773	1.56518
4209.000	3.55601	2.45667	0.71564	1.53138
4210.000	3.61903	2.47038	0.72552	1.51945
4211.000	3.60721	2.47041	0.68796	1.54332
4212.000	3.56979	2.43285	0.70378	1.51350
4213.000	3.58752	2.47244	0.70180	1.59897
4214.000	3.59736	2.47242	0.71761	1.60493
4215.000	3.58555	2.43479	0.74726	1.57908
4216.000	3.59540	2.47837	0.72552	1.53734
4217.000	3.56389	2.48638	0.68006	1.60494
4218.000	3.60721	2.48428	0.72552	1.56120
4219.000	3.59540	2.49422	0.71168	1.63077
4220.000	3.58949	2.53982	0.77098	1.64069
4221.000	3.56586	2.45863	0.71564	1.63077
4222.000	3.57767	2.52003	0.80459	1.63272
4223.000	3.64462	2.49211	0.70575	1.57512
4224.000	3.55601	2.50622	0.73145	1.70828
4225.000	3.59343	2.50216	0.73540	1.65263
4226.000	3.57964	2.46256	0.72750	1.62083
4227.000	3.63872	2.51590	0.72157	1.58306
4228.000	3.61115	2.48625	0.73343	1.61884
4229.000	3.60524	2.45456	0.71366	1.58704
4230.000	3.60918	2.49220	0.72750	1.62480
4231.000	3.63478	2.48817	0.72552	1.62679
4232.000	3.62690	2.46441	0.74924	1.58305
4233.000	3.58358	2.47840	0.77889	1.64466
4234.000	3.57767	2.50616	0.76110	1.59299
4235.000	3.61312	2.47436	0.79273	1.56316
4236.000	3.58358	2.47840	0.76308	1.57907
4237.000	3.57176	2.45861	0.77691	1.63472
4238.000	3.62296	2.44857	0.76110	1.67249
4239.000	3.60130	2.50015	0.73540	1.56119
4240.000	3.62493	2.45847	0.73738	1.62082
4241.000	3.63478	2.50006	0.75319	1.54131
4242.000	3.60918	2.44068	0.78087	1.58105
4243.000	3.61312	2.44463	0.72552	1.58107
4244.000	3.61115	2.46445	0.79273	1.53533
4245.000	3.65644	2.48018	0.76308	1.53137
4246.000	3.60130	2.50610	0.76110	1.56317
4247.000	3.63478	2.46241	0.77494	1.61087
4248.000	3.61706	2.49615	0.71564	1.54927
4249.000	3.57570	2.47842	0.75912	1.56118
4250.000	3.61706	2.49218	0.75319	1.54330
4251.000	3.59146	2.42090	0.73738	1.53734
4252.000	3.62296	2.41487	0.76505	1.53534
4253.000	3.61706	2.47038	0.78087	1.57112
4254.000	3.57373	2.45068	0.74529	1.54727
4255.000	3.60130	2.47241	0.79470	1.57310
4256.000	3.59146	2.43676	0.77691	1.55521
4257.000	3.58555	2.40903	0.75122	1.55324
4258.000	3.60524	2.45456	0.75319	1.58504
4259.000	3.58555	2.42488	0.77691	1.56118
4260.000	3.57373	2.40113	0.83819	1.55122
4261.000	3.56586	2.44079	0.78877	1.56316
4262.000	3.56192	2.38134	0.76901	1.58702
4263.000	3.55010	2.39723	0.80656	1.58899
4264.000	3.57570	2.37932	0.76703	1.53136
4265.000	3.54616	2.38336	0.80063	1.55719
4266.000	3.52647	2.38341	0.77494	1.56515
4267.000	3.59343	2.38324	0.75715	1.59895
4268.000	3.51465	2.33983	0.80854	1.56117
4269.000	3.55207	2.36947	0.81249	1.56713
4270.000	3.55207	2.36947	0.76901	1.61882
4271.000	3.52450	2.37153	0.78284	1.55521
4272.000	3.56192	2.40909	0.80261	1.59297
4273.000	3.55010	2.34965	0.78482	1.58105
4274.000	3.54419	2.37346	0.81249	1.67446
4275.000	3.60327	2.37925	0.77494	1.64069
4276.000	3.57176	2.37537	0.84214	1.68439
4277.000	3.62296	2.36136	0.80063	1.59297
4278.000	3.62887	2.42873	0.83819	1.64066
4279.000	3.68991	2.44442	0.81249	1.53532
4280.000	3.65250	2.40885	0.81842	1.62676
4281.000	3.59736	2.43476	0.78284	1.56714
4282.000	3.56979	2.48438	0.68006	1.60693
4283.000	3.44768	2.45101	0.58122	1.54136
4284.000	3.39843	2.48682	0.48435	1.57120
4285.000	3.18562	2.56863	0.41516	1.49170
4286.000	3.04764	2.60069	0.24515	1.54938
4287.000	2.85835	2.58329	0.08501	1.49174
4288.000	2.58417	2.61957	-0.15223	1.50963
4289.000	2.32960	2.54866	-0.33411	1.51358
4290.000	2.08679	2.53518	-0.48435	1.47379
4291.000	1.97819	2.55916	-0.59110	1.61292
4292.000	1.81033	2.54750	-0.73540	1.52541
4293.000	1.63256	2.52789	-0.91923	1.51341
4294.000	1.50415	2.58561	-1.02793	1.58293
4295.000	1.40537	2.55992	-1.10698	1.58488
4296.000	1.28286	2.48461	-1.18406	1.58881
4297.000	1.29274	2.47269	-1.15837	1.60473
4298.000	1.27693	2.55807	-1.14256	1.67032
4299.000	1.27298	2.47271	-1.21172	1.64444
4300.000	1.22951	2.45290	-1.24334	1.60468
4301.000	1.27298	2.48661	-1.28879	1.59670
4302.000	1.20382	2.50057	-1.34412	1.63641
4303.000	1.17813	2.47280	-1.42315	1.62443
4304.000	1.14256	2.42915	-1.45081	1.62044
4305.000	1.13268	2.46093	-1.50020	1.53296
4306.000	1.11291	2.42123	-1.52984	1.51704
4307.000	1.10303	2.42124	-1.53379	1.54288
4308.000	1.15837	2.40531	-1.54959	1.57069
4309.000	1.14058	2.41526	-1.51798	1.57468
4310.000	1.18010	2.34175	-1.54762	1.49120
4311.000	1.15441	2.36163	-1.53379	1.52300
4312.000	1.22555	2.38738	-1.47649	1.51907
4313.000	1.21567	2.43902	-1.44488	1.60256
4314.000	1.30855	2.40319	-1.40339	1.53303
4315.000	1.29669	2.43497	-1.35795	1.58274
4316.000	1.35004	2.53219	-1.34609	1.62846
4317.000	1.36585	2.52423	-1.31645	1.62848
4318.000	1.37771	2.58774	-1.31843	1.70002
4319.000	1.40142	2.52816	-1.30262	1.61657
4320.000	1.41722	2.56189	-1.29669	1.64240
4321.000	1.33028	2.51236	-1.32040	1.63643
4322.000	1.36585	2.49446	-1.35992	1.63441
4323.000	1.31843	2.45679	-1.35004	1.61057
4324.000	1.33819	2.46074	-1.26508	1.57088
4325.000	1.33424	2.41111	-1.37573	1.56882
4326.000	1.33621	2.44287	-1.37178	1.59863
4327.000	1.32040	2.38730	-1.35202	1.61057
4328.000	1.29472	2.40916	-1.39944	1.59464
4329.000	1.30460	2.38930	-1.39944	1.66419
4330.000	1.28286	2.35953	-1.38956	1.60657
4331.000	1.28879	2.43299	-1.36585	1.62646
4332.000	1.34016	2.44684	-1.39351	1.60259
4333.000	1.34609	2.40316	-1.37968	1.69799
4334.000	1.27496	2.42705	-1.36387	1.69005
4335.000	1.33226	2.41707	-1.41920	1.63437
4336.000	1.31843	2.40914	-1.40339	1.64631
4337.000	1.32238	2.42700	-1.40734	1.67214
4338.000	1.35992	2.37733	-1.39549	1.64035
4339.000	1.32633	2.40317	-1.40142	1.65227
4340.000	1.35597	2.39322	-1.34807	1.66026
4341.000	1.32238	2.37141	-1.39944	1.63240
4342.000	1.33424	2.40515	-1.43896	1.70589
4343.000	1.32831	2.35552	-1.42710	1.65821
4344.000	1.36190	2.31776	-1.38956	1.66221
4345.000	1.35004	2.33366	-1.38561	1.64234
4346.000	1.38956	2.44083	-1.37573	1.65427
4347.000	1.33621	2.33367	-1.36980	1.68806
4348.000	1.34412	2.33962	-1.42513	1.61648
4349.000	1.36783	2.36144	-1.38363	1.62049
4350.000	1.35004	2.34557	-1.38956	1.69600
4351.000	1.36190	2.34755	-1.39549	1.65426
4352.000	1.36387	2.35946	-1.35202	1.66621
4353.000	1.38363	2.37334	-1.39549	1.65625
4354.000	1.35202	2.33564	-1.35795	1.71589
4355.000	1.35597	2.29593	-1.35399	1.68410
4356.000	1.38758	2.33958	-1.37968	1.65030
4357.000	1.35202	2.37734	-1.36980	1.69203
4358.000	1.42710	2.33358	-1.35597	1.63839
4359.000	1.35992	2.32968	-1.33226	1.68411
4360.000	1.34807	2.33565	-1.39549	1.69798
4361.000	1.40142	2.38920	-1.31448	1.70002
4362.000	1.37178	2.34357	-1.34412	1.69404
4363.000	1.38166	2.35944	-1.30657	1.74176
4364.000	1.35202	2.33564	-1.40339	1.73175
4365.000	1.38561	2.38525	-1.34807	1.77948
4366.000	1.35202	2.35748	-1.38956	1.72580
4367.000	1.35399	2.34160	-1.34214	1.76359
4368.000	1.29472	2.31187	-1.31843	1.73380
4369.000	1.35202	2.36344	-1.32633	1.73976
4370.000	1.39154	2.34950	-1.32436	1.72585
4371.000	1.37375	2.32172	-1.35004	1.73775
4372.000	1.36585	2.34159	-1.37375	1.70594
4373.000	1.33028	2.34361	-1.34609	1.71391
4374.000	1.35597	2.31975	-1.33424	1.71392
4375.000	1.38363	2.37929	-1.32040	1.76559
4376.000	1.37573	2.31179	-1.35399	1.76557
4377.000	1.32436	2.36744	-1.37375	1.74370
4378.000	1.34214	2.35749	-1.37968	1.70594
4379.000	1.31250	2.31980	-1.36190	1.74172
4380.000	1.37178	2.40511	-1.34609	1.76955
4381.000	1.35202	2.34954	-1.34214	1.73378
4382.000	1.37375	2.37335	-1.31052	1.71393
4383.000	1.32831	2.35949	-1.36387	1.68409
4384.000	1.32040	2.33170	-1.37178	1.74171
4385.000	1.37375	2.39916	-1.33226	1.70398
4386.000	1.35597	2.32174	-1.38166	1.69203
4387.000	1.35202	2.32770	-1.35795	1.71589
4388.000	1.33819	2.33168	-1.37375	1.73376
4389.000	1.32633	2.33765	-1.40142	1.70592
4390.000	1.38166	2.34753	-1.32633	1.68213
4391.000	1.38166	2.36738	-1.38166	1.71786
4392.000	1.33424	2.33367	-1.35399	1.75365
4393.000	1.33424	2.32375	-1.34807	1.73577
4394.000	1.35399	2.30387	-1.34412	1.65827
4395.000	1.33226	2.29793	-1.32436	1.63046
4396.000	1.33226	2.35750	-1.32436	1.66226
4397.000	1.31645	2.35752	-1.35795	1.66224
4398.000	1.35202	2.30586	-1.31645	1.73181
4399.000	1.30064	2.32179	-1.36190	1.65031
4400.000	1.33621	2.36743	-1.31843	1.68412
4401.000	1.36783	2.38725	-1.34016	1.71988
4402.000	1.33819	2.38331	-1.36387	1.71588
4403.000	1.32436	2.34758	-1.34807	1.68410
4404.000	1.33226	2.33963	-1.33819	1.68610
4405.000	1.31645	2.36149	-1.29867	1.68811
4406.000	1.31448	2.31979	-1.34609	1.72782
4407.000	1.31843	2.33965	-1.35202	1.72583
4408.000	1.29274	2.29598	-1.34412	1.67417
4409.000	1.33028	2.33566	-1.33424	1.72187
4410.000	1.38363	2.32767	-1.30855	1.65233
4411.000	1.34016	2.31778	-1.33819	1.68808
4412.000	1.32040	2.30192	-1.33226	1.68809
4413.000	1.36783	2.30187	-1.31448	1.67618
4414.000	1.33819	2.31779	-1.36980	1.70396
4415.000	1.33621	2.29197	-1.32831	1.65033
4416.000	1.37573	2.35349	-1.36783	1.68210
4417.000	1.35795	2.30982	-1.31448	1.69406
4418.000	1.34412	2.32969	-1.31645	1.74175
4419.000	1.30460	2.29995	-1.30064	1.67817
4420.000	1.36387	2.31776	-1.32436	1.71591
4421.000	1.34807	2.34160	-1.31448	1.76361
4422.000	1.35004	2.34756	-1.29274	1.70997
4423.000	1.35399	2.35153	-1.28681	1.74574
4424.000	1.35597	2.34358	-1.29274	1.72190
4425.000	1.36190	2.36145	-1.37178	1.74171
4426.000	1.33621	2.31183	-1.35795	1.70993
4427.000	1.37573	2.35945	-1.28879	1.72587
4428.000	1.39944	2.34950	-1.31052	1.68214
4429.000	1.38561	2.34752	-1.33424	1.68809
4430.000	1.35992	2.39520	-1.29669	1.75766
4431.000	1.35004	2.34160	-1.29472	1.71196
4432.000	1.33028	2.38729	-1.30460	1.72586
4433.000	1.39549	2.33957	-1.31052	1.74573
4434.000	1.37771	2.36937	-1.27891	1.81331
4435.000	1.39746	2.39913	-1.29076	1.79343
4436.000	1.39549	2.42693	-1.31645	1.73579
4437.000	1.45081	2.42489	-1.32633	1.76956
4438.000	1.40339	2.43685	-1.29472	1.78747
4439.000	1.40734	2.41302	-1.29669	1.74176
4440.000	1.43105	2.39513	-1.31448	1.74771
4441.000	1.40734	2.37927	-1.29867	1.75368
4442.000	1.37771	2.46070	-1.33028	1.73975
4443.000	1.40932	2.33559	-1.28681	1.74773
4444.000	1.43896	2.38321	-1.27496	1.72389
4445.000	1.39154	2.43090	-1.26310	1.71794
4446.000	1.45476	2.43481	-1.29867	1.70997
4447.000	1.42710	2.41896	-1.24927	1.73186
4448.000	1.47452	2.37721	-1.26508	1.72191
4449.000	1.46464	2.44274	-1.27891	1.72588
4450.000	1.45279	2.38716	-1.25717	1.77557
4451.000	1.38956	2.42694	-1.25915	1.72390
4452.000	1.44093	2.43085	-1.25915	1.74775
4453.000	1.41129	2.39912	-1.29274	1.75170
4454.000	1.43500	2.40704	-1.28484	1.73184
4455.000	1.39549	2.36935	-1.31052	1.74573
