time (ms)	lx (deg)	ly (deg)	rx (deg)	ry (deg)
0.000	3.42207	3.28503	0.79273	2.33607
1.000	3.42207	3.16625	0.72354	2.31426
2.000	3.39055	3.17824	0.80063	2.32415
3.000	3.44374	3.23745	0.79075	2.36586
4.000	3.41025	3.19203	0.77098	2.33410
5.000	3.40040	3.20394	0.76110	2.33807
6.000	3.41813	3.24743	0.78087	2.40161
7.000	3.40040	3.19998	0.81052	2.34400
8.000	3.38267	3.18618	0.76308	2.31424
9.000	3.40237	3.16434	0.75517	2.35595
10.000	3.40040	3.20988	0.76110	2.38573
11.000	3.43586	3.20778	0.71168	2.35200
12.000	3.41222	3.19796	0.78877	2.36387
13.000	3.38661	3.16835	0.72157	2.34604
14.000	3.39843	3.15247	0.76505	2.30431
15.000	3.38267	3.19212	0.75319	2.31424
16.000	3.37676	3.19808	0.74133	2.35993
17.000	3.41813	3.17616	0.75912	2.36786
18.000	3.39449	3.17624	0.77889	2.37579
19.000	3.39449	3.18416	0.77296	2.35793
20.000	3.45950	3.18593	0.72947	2.38972
21.000	3.42207	3.16823	0.75517	2.34006
22.000	3.43980	3.22163	0.72750	2.42150
23.000	3.43389	3.22560	0.72750	2.34206
24.000	3.39449	3.21386	0.74529	2.33808
25.000	3.40237	3.14850	0.70378	2.31427
26.000	3.38661	3.14657	0.73343	2.35795
27.000	3.36494	3.16248	0.73145	2.35795
28.000	3.42010	3.24347	0.76505	2.34204
29.000	3.40631	3.18214	0.73738	2.36390
30.000	3.40828	3.18214	0.76703	2.34601
31.000	3.37676	3.17828	0.75912	2.32814
32.000	3.46147	3.20769	0.78680	2.30827
33.000	3.38464	3.17429	0.71366	2.37782
34.000	3.42601	3.28502	0.76901	2.39566
35.000	3.41813	3.22962	0.77494	2.35792
36.000	3.40237	3.21383	0.73936	2.40759
37.000	3.44177	3.21964	0.77889	2.36587
38.000	3.41222	3.21974	0.71761	2.37980
39.000	3.47329	3.23735	0.78087	2.40558
40.000	3.40828	3.26924	0.76110	2.36985
41.000	3.39252	3.20793	0.76308	2.35197
42.000	3.41616	3.20785	0.75122	2.34006
43.000	3.42798	3.22166	0.75912	2.35595
44.000	3.43980	3.23152	0.72157	2.37781
45.000	3.40434	3.21185	0.74924	2.34006
46.000	3.38661	3.21388	0.74331	2.42546
47.000	3.37676	3.24361	0.72552	2.39171
48.000	3.41419	3.23755	0.73145	2.32816
49.000	3.39843	3.23562	0.71366	2.42349
50.000	3.43980	3.20579	0.72157	2.43143
51.000	3.40631	3.22768	0.73540	2.40163
52.000	3.40237	3.25738	0.74529	2.41354
53.000	3.43783	3.21371	0.75715	2.38772
54.000	3.35903	3.28128	0.70575	2.31626
55.000	3.39646	3.26532	0.68401	2.39570
56.000	3.41813	3.23160	0.74133	2.37184
57.000	3.36888	3.23176	0.73343	2.38972
58.000	3.41813	3.24149	0.77296	2.36388
59.000	3.38661	3.28911	0.73343	2.44929
60.000	3.38070	3.25548	0.72552	2.37185
61.000	3.36297	3.26543	0.69982	2.36591
62.000	3.43586	3.25133	0.68401	2.45130
63.000	3.39449	3.24157	0.70378	2.39172
64.000	3.42601	3.29887	0.68796	2.40166
65.000	3.40237	3.23957	0.70971	2.38378
66.000	3.38070	3.28319	0.70378	2.42151
67.000	3.37085	3.24561	0.68006	2.40762
68.000	3.40237	3.24155	0.71564	2.35796
69.000	3.36297	3.24960	0.67215	2.37585
70.000	3.40040	3.28114	0.70971	2.40363
71.000	3.45162	3.27503	0.69587	2.32818
72.000	3.40040	3.25343	0.77098	2.44729
73.000	3.44768	3.31859	0.74529	2.45723
74.000	3.43980	3.28497	0.71761	2.40959
75.000	3.43783	3.33643	0.73343	2.39766
76.000	3.48708	3.40750	0.72947	2.39965
77.000	3.49692	3.40944	0.74726	2.42347
78.000	3.47526	3.51241	0.64052	2.32423
79.000	3.46344	3.54212	0.55947	2.31632
80.000	3.41025	3.55221	0.52389	2.12564
81.000	3.29795	3.44181	0.37563	2.07403
82.000	3.06144	3.33174	0.24515	1.98465
83.000	2.81496	3.07694	0.08303	1.82966
84.000	2.64533	3.00405	-0.12850	1.72034
85.000	2.40657	2.82419	-0.27678	1.51558
86.000	2.19538	2.68578	-0.39144	1.23920
87.000	2.03941	2.46580	-0.51796	1.06617
88.000	1.85773	2.30727	-0.71761	0.84141
89.000	1.68985	2.13077	-0.86784	0.79762
90.000	1.43896	1.89862	-0.94097	0.65242
91.000	1.39549	1.75163	-0.98840	0.62059
92.000	1.27891	1.63248	-0.99433	0.70611
93.000	1.24532	1.53114	-1.03188	0.84332
94.000	1.22160	1.51525	-1.00817	0.93481
95.000	1.22555	1.49935	-0.94097	0.88511
96.000	1.28681	1.55497	-0.93504	0.87119
97.000	1.34609	1.62647	-0.95480	0.91494
98.000	1.42315	1.64431	-0.94295	0.93483
99.000	1.44093	1.70589	-0.91527	0.95671
100.000	1.50415	1.80718	-0.90737	0.96466
101.000	1.60886	1.90840	-0.96271	0.97062
102.000	1.63059	1.97989	-0.97852	1.03822
103.000	1.62466	2.00572	-0.97259	1.00840
104.000	1.64441	2.02754	-0.98445	1.00441
105.000	1.63256	2.04742	-1.03979	0.99247
106.000	1.64639	2.07719	-1.00619	0.96265
107.000	1.63059	2.06728	-1.02200	0.98253
108.000	1.65232	2.11691	-1.00421	0.93680
109.000	1.58515	2.09513	-0.99236	0.92885
110.000	1.60886	2.03950	-0.96864	0.96067
111.000	1.62071	2.07523	-0.94690	1.00045
112.000	1.63454	2.06926	-0.94492	0.99249
113.000	1.68195	2.01559	-0.91923	1.04023
114.000	1.65034	2.08116	-0.95678	0.96465
115.000	1.70565	2.00960	-0.93306	1.05215
116.000	1.67009	1.99971	-0.93306	0.97261
117.000	1.66022	2.04540	-0.92516	1.06210
118.000	1.66417	1.93020	-0.96666	1.03425
119.000	1.68787	2.04736	-0.94492	1.05613
120.000	1.64639	1.97987	-0.93899	1.06806
121.000	1.67800	1.98977	-0.98247	0.98652
122.000	1.66417	2.01163	-0.96469	1.00442
123.000	1.63651	1.98584	-0.97654	1.03226
124.000	1.65232	2.02952	-0.98643	1.04418
125.000	1.64441	2.03152	-0.94295	0.96664
126.000	1.67009	1.98581	-0.95085	1.02630
127.000	1.69775	2.02550	-1.01410	1.11775
128.000	1.68195	1.99374	-0.97062	1.03822
129.000	1.66022	1.96596	-0.96864	1.06606
130.000	1.64837	1.95206	-0.94492	1.03028
131.000	1.65034	2.03945	-0.96073	1.07601
132.000	1.63849	2.01365	-0.95876	1.01834
133.000	1.66219	2.00766	-0.91527	1.06210
134.000	1.69182	2.03544	-0.95085	1.05811
135.000	1.63849	2.02755	-0.96271	1.10981
136.000	1.70762	1.98180	-1.01607	1.12570
137.000	1.65627	2.01959	-0.95085	1.09788
138.000	1.66614	2.02553	-0.97457	1.05612
139.000	1.64244	2.04343	-0.95480	1.07800
140.000	1.73133	2.08902	-0.98247	1.13963
141.000	1.68787	2.07715	-1.00224	1.07997
142.000	1.65824	2.02554	-1.03386	1.06405
143.000	1.66022	1.97986	-1.00619	1.01634
144.000	1.67207	2.05929	-0.93306	1.09988
145.000	1.66219	2.07916	-1.01014	1.07201
146.000	1.72145	1.99370	-1.02003	1.09786
147.000	1.65627	2.02356	-1.03584	1.07002
148.000	1.65429	2.01760	-0.98050	1.03424
149.000	1.65824	1.99575	-1.00421	1.07599
150.000	1.65034	2.05733	-0.95876	1.04618
151.000	1.61281	1.96799	-0.96073	1.03823
152.000	1.68392	2.00764	-1.01607	1.04219
153.000	1.64046	2.04542	-1.03386	1.04616
154.000	1.62071	2.06133	-1.02595	1.01434
155.000	1.63651	2.06926	-1.01410	0.99844
156.000	1.63651	2.04543	-0.96271	1.10384
157.000	1.65824	2.03945	-0.99631	1.04816
158.000	1.67997	2.03148	-0.99236	1.09588
159.000	1.67997	1.99374	-1.00224	1.07202
160.000	1.61478	2.03750	-1.00224	1.12173
161.000	1.63454	2.06727	-0.99038	1.13565
162.000	1.66022	2.06923	-0.98643	1.09191
163.000	1.63454	2.03947	-0.99631	1.10185
164.000	1.64244	1.98981	-0.98247	1.07401
165.000	1.68195	2.02949	-1.03188	1.06207
166.000	1.64837	2.03151	-0.98445	1.11577
167.000	1.61478	2.04743	-0.95678	1.11379
168.000	1.61873	2.04544	-0.98445	1.10781
169.000	1.62664	2.03749	-0.93702	1.13567
170.000	1.62071	2.02161	-0.99038	1.05214
171.000	1.67009	2.01361	-0.95678	1.13367
172.000	1.67800	2.02155	-0.96271	1.12572
173.000	1.65034	2.03350	-0.92120	1.14363
174.000	1.66614	2.01362	-0.94887	1.09987
175.000	1.67404	2.05333	-0.96864	1.07600
176.000	1.66417	2.06923	-0.93702	1.08596
177.000	1.64837	2.00569	-0.97457	1.05214
178.000	1.66219	2.04937	-0.99236	1.07799
179.000	1.66219	2.00766	-0.98247	1.10583
180.000	1.61281	2.04148	-0.98247	1.06009
181.000	1.63454	2.03550	-0.98247	1.09390
182.000	1.63454	2.06529	-1.02003	1.13365
183.000	1.61873	1.99579	-0.94492	1.13567
184.000	1.64837	2.02754	-0.98050	1.10782
185.000	1.62071	2.00969	-0.98050	1.12969
186.000	1.63454	2.01564	-0.94690	1.11976
187.000	1.65232	1.99973	-0.96469	1.10981
188.000	1.58318	2.04349	-0.94295	1.08596
189.000	1.64244	2.04939	-0.96271	1.10384
190.000	1.63059	2.02160	-0.95085	1.04221
191.000	1.63849	2.00372	-0.93306	1.05414
192.000	1.61676	2.01367	-0.97259	1.07600
193.000	1.62664	2.00571	-0.98050	1.08793
194.000	1.60688	2.10305	-0.98643	1.07401
195.000	1.65824	2.00171	-0.96666	1.09191
196.000	1.64441	2.02158	-0.95480	1.09987
197.000	1.60096	2.08717	-0.95480	1.11379
198.000	1.67997	2.02353	-0.99631	1.04219
199.000	1.67207	2.07518	-0.95085	1.05016
200.000	1.61083	2.09113	-1.00026	1.11377
201.000	1.65034	2.07719	-0.97654	1.03027
202.000	1.67207	2.10894	-0.95678	1.08197
203.000	1.66614	2.08512	-0.98840	1.07202
204.000	1.65429	2.08314	-0.99433	1.04418
205.000	1.66812	2.11093	-0.99433	1.04219
206.000	1.63651	2.10501	-1.02991	1.04019
207.000	1.64046	2.07124	-0.98840	1.07799
208.000	1.64837	2.06925	-0.96271	1.01436
209.000	1.67009	2.10497	-1.01805	1.00043
210.000	1.69380	2.08111	-1.01014	1.01833
211.000	1.66614	2.08114	-0.97062	1.02033
212.000	1.67207	2.07121	-0.96864	1.04419
213.000	1.73528	2.09100	-0.99829	1.03026
214.000	1.64639	2.06329	-1.02398	0.97457
215.000	1.62861	1.99181	-0.96271	1.03425
216.000	1.69775	2.04338	-0.99631	1.01833
217.000	1.69182	2.07317	-0.99631	1.07600
218.000	1.69182	2.11091	-0.98840	1.07401
219.000	1.68590	2.10098	-0.98643	1.03225
220.000	1.65034	2.12485	-1.00619	1.05412
221.000	1.62071	2.14673	-0.98247	1.03225
222.000	1.69577	2.13473	-1.00619	1.05213
223.000	1.67009	2.09306	-0.99631	1.00441
224.000	1.67800	2.07915	-0.98050	1.00044
225.000	1.65034	2.04938	-0.98445	0.99447
226.000	1.67009	2.07320	-1.00421	0.97458
227.000	1.66812	2.11292	-1.01014	1.00441
228.000	1.66812	2.07717	-0.95283	0.97062
229.000	1.62466	2.07523	-0.95678	0.98255
230.000	1.67602	2.09901	-1.03386	0.99843
231.000	1.69380	2.08111	-1.04967	1.00042
232.000	1.67404	2.08511	-1.01410	1.00639
233.000	1.69380	2.07913	-1.02398	1.03224
234.000	1.66219	2.09108	-0.99829	1.02430
235.000	1.65824	2.12881	-1.00817	1.02628
236.000	1.66219	2.01561	-1.02398	1.03423
237.000	1.66812	2.11887	-0.98445	1.00839
238.000	1.63651	2.15068	-1.00421	1.00441
239.000	1.63059	2.11097	-0.97852	1.05612
240.000	1.64639	2.08315	-0.98445	1.03424
241.000	1.65232	2.09109	-0.99829	1.04219
242.000	1.67997	2.08907	-0.97852	0.96067
243.000	1.63256	2.08317	-0.97259	0.98851
244.000	1.65429	2.10300	-1.00026	1.03424
245.000	1.62664	2.05934	-0.99829	0.99844
246.000	1.60886	2.11894	-1.02991	1.02230
247.000	1.62466	2.09509	-0.97852	0.98453
248.000	1.60886	2.05538	-1.03188	0.94872
249.000	1.61281	2.04744	-0.98840	1.04617
250.000	1.65034	2.05336	-0.98643	1.04220
251.000	1.63454	2.04344	-1.00619	0.95867
252.000	1.62861	2.11892	-0.99433	1.05611
253.000	1.61676	2.07722	-1.00421	0.99049
254.000	1.64046	2.12486	-0.95085	1.04419
255.000	1.65034	2.08910	-0.98050	0.97856
256.000	1.60096	2.10504	-0.96271	0.99448
257.000	1.60293	2.03553	-0.97259	1.03425
258.000	1.67009	2.12682	-1.01805	0.97259
259.000	1.63059	2.08118	-0.97259	1.02033
260.000	1.57527	2.11897	-0.97457	1.00243
261.000	1.66614	2.14271	-1.01410	0.95270
262.000	1.60688	2.11894	-1.04177	0.96661
263.000	1.61873	2.09907	-1.00619	0.91890
264.000	1.66219	2.05732	-0.99433	0.99248
265.000	1.60096	2.14476	-0.98050	1.01038
266.000	1.61478	2.12687	-0.99829	0.96066
267.000	1.64046	2.13082	-1.02003	0.96662
268.000	1.61676	2.18645	-1.01014	0.94674
269.000	1.62664	2.14672	-1.01410	0.91094
270.000	1.65429	2.15066	-1.01805	0.95469
271.000	1.64837	2.17450	-1.05362	0.98451
272.000	1.65429	2.19038	-1.01014	0.91094
273.000	1.62071	2.07126	-1.02200	0.90100
274.000	1.66022	2.13874	-1.02991	0.97855
275.000	1.62466	2.17055	-1.04967	0.97854
276.000	1.66812	2.18043	-1.00619	0.92487
277.000	1.66614	2.17051	-1.03188	0.91690
278.000	1.65429	2.20825	-1.00421	0.90498
279.000	1.68195	2.19432	-0.98445	0.95669
280.000	1.63256	2.13083	-1.00817	0.92288
281.000	1.66614	2.12682	-1.01410	0.93083
282.000	1.63651	2.16458	-0.97654	0.98055
283.000	1.64639	2.15663	-1.02200	1.00838
284.000	1.65824	2.14867	-1.02398	0.89304
285.000	1.67009	2.14667	-1.03584	0.98054
286.000	1.65429	2.16456	-1.01607	0.96265
287.000	1.63059	2.14672	-0.98050	0.96663
288.000	1.67997	2.12879	-0.96666	0.93482
289.000	1.63849	2.10500	-0.97457	1.01237
290.000	1.67602	2.15461	-0.99631	1.01435
291.000	1.61281	2.10702	-0.94887	0.89704
292.000	1.62861	2.10104	-0.95283	0.97062
293.000	1.69775	2.10494	-1.01212	0.93680
294.000	1.63256	2.09905	-0.97062	0.94675
295.000	1.67602	2.17050	-0.99236	0.98453
296.000	1.67602	2.16851	-0.94690	0.96068
297.000	1.66417	2.11292	-0.92911	0.97460
298.000	1.66219	2.17051	-0.95480	0.99647
299.000	1.67997	2.14666	-0.98445	0.92089
300.000	1.61478	2.13680	-0.96864	0.96862
301.000	1.65429	2.13875	-0.93899	0.96267
302.000	1.60886	2.13681	-0.97852	0.98254
303.000	1.65429	2.12485	-0.96073	0.97260
304.000	1.63256	2.05139	-0.95480	0.98454
305.000	1.64046	2.10302	-0.95283	0.98852
306.000	1.65034	2.10499	-0.95678	1.00045
307.000	1.67009	2.16455	-0.98840	1.04021
308.000	1.59108	2.08917	-0.98247	1.00839
309.000	1.60293	2.11894	-1.02991	1.02230
310.000	1.65429	2.07123	-1.00817	1.03622
311.000	1.63059	2.10700	-0.98050	1.02032
312.000	1.62071	2.10304	-0.93899	1.03227
313.000	1.67997	2.05333	-0.97654	1.05413
314.000	1.61873	2.13084	-0.99829	1.01236
315.000	1.63059	2.05735	-0.90737	0.98256
316.000	1.58318	2.14478	-0.93504	1.05812
317.000	1.61281	2.09709	-0.97259	1.02231
318.000	1.62664	2.12686	-0.94887	1.08595
319.000	1.60886	2.07127	-0.96271	1.06408
320.000	1.65034	2.07123	-0.96073	1.07402
321.000	1.63059	2.04940	-0.95678	1.05414
322.000	1.63059	2.05933	-1.00224	1.03424
323.000	1.61083	2.08915	-0.98050	1.00839
324.000	1.59700	2.07327	-1.00421	1.06804
325.000	1.64046	2.07720	-0.95283	1.03823
326.000	1.68590	2.10297	-0.91923	1.03227
327.000	1.62071	2.06530	-0.93702	1.04221
328.000	1.62664	2.04544	-0.93109	1.07801
329.000	1.61873	2.03750	-0.97654	1.04021
330.000	1.62466	2.08516	-0.94097	1.05812
331.000	1.63651	2.14075	-0.91725	0.98853
332.000	1.58910	2.09910	-0.94887	1.04022
333.000	1.63454	2.05933	-0.98050	0.99050
334.000	1.59700	2.11498	-0.97062	0.97857
335.000	1.61083	2.07524	-0.97062	0.96862
336.000	1.67009	2.04539	-0.93306	1.02431
337.000	1.63849	2.05337	-0.95678	1.02431
338.000	1.60491	2.03950	-0.95678	0.96465
339.000	1.62664	2.01962	-0.95283	0.97857
340.000	1.63059	2.04940	-0.98247	1.04220
341.000	1.62269	2.02359	-0.92120	0.91097
342.000	1.65034	2.03747	-0.97457	1.00839
343.000	1.62071	2.05934	-0.94690	1.02431
344.000	1.63651	2.07124	-0.95283	1.00244
345.000	1.62861	2.06132	-0.95085	1.04419
346.000	1.63454	2.10898	-0.96271	1.03425
347.000	1.63651	2.07522	-0.97457	1.02231
348.000	1.58515	2.09712	-0.93306	1.04818
349.000	1.61281	2.13085	-0.98050	1.02032
350.000	1.59898	2.13086	-0.96469	0.95073
351.000	1.62664	2.06331	-0.95876	0.96664
352.000	1.64639	2.08514	-0.97852	1.04419
353.000	1.58910	2.06732	-0.97062	1.00044
354.000	1.63849	2.07720	-1.01607	1.00639
355.000	1.63849	2.06528	-0.98445	1.01833
356.000	1.58910	2.10506	-0.95283	1.03226
357.000	1.61676	2.14077	-0.98050	0.97856
358.000	1.60688	2.11100	-0.99829	0.94078
359.000	1.61281	2.09709	-0.95678	0.96067
360.000	1.60096	2.05341	-0.94690	1.00443
361.000	1.62861	2.08118	-0.91923	0.99648
362.000	1.58318	2.07329	-0.97457	1.04419
363.000	1.59898	2.09313	-0.99829	0.99248
364.000	1.59108	2.05937	-0.99631	1.00242
365.000	1.62269	2.10304	-0.97062	0.98056
366.000	1.63849	2.10302	-0.94492	1.01437
367.000	1.55749	2.06139	-0.97852	1.00044
368.000	1.53576	2.08326	-0.98247	0.93680
369.000	1.63651	2.12089	-0.95480	1.00243
370.000	1.60293	2.08717	-0.98050	1.01237
371.000	1.53379	2.09121	-1.00619	0.96861
372.000	1.53971	2.09120	-0.97062	1.00641
373.000	1.58318	2.09513	-0.94492	1.01835
374.000	1.55552	2.08126	-0.96864	0.92090
375.000	1.58713	2.07924	-0.97457	0.92090
376.000	1.56145	2.08522	-0.96864	1.00442
377.000	1.55947	2.07728	-1.02398	0.98849
378.000	1.59898	2.07923	-0.96864	0.99249
379.000	1.60491	2.04744	-0.99236	0.98453
380.000	1.58515	2.15471	-0.99236	0.98055
381.000	1.54959	2.07332	-0.99038	0.94078
382.000	1.55552	2.10906	-0.98445	0.98652
383.000	1.58713	2.12889	-1.01212	0.95668
384.000	1.58515	2.10705	-0.97457	1.02828
385.000	1.50810	2.10712	-0.96271	0.90101
386.000	1.57923	2.11698	-0.96666	0.96664
387.000	1.52589	2.10313	-0.98050	0.99050
388.000	1.55947	2.11104	-1.02003	0.93679
389.000	1.53181	2.07135	-0.97852	0.98652
390.000	1.60293	2.07922	-1.00619	0.94276
391.000	1.55947	2.12097	-1.01410	0.96662
392.000	1.56935	2.08124	-0.97852	0.96862
393.000	1.53971	2.06340	-1.03188	0.93082
394.000	1.54367	2.11305	-0.98050	1.00044
395.000	1.56935	2.12891	-1.03386	0.93480
396.000	1.57527	2.11897	-1.02991	0.99645
397.000	1.53181	2.09915	-0.98247	1.00640
398.000	1.54762	2.14680	-1.00224	1.08792
399.000	1.59305	2.13881	-1.02991	1.02429
400.000	1.59898	2.12888	-1.00619	1.02827
401.000	1.59503	2.13285	-0.94097	1.01039
402.000	1.55157	2.12098	-0.99236	1.02629
403.000	1.59503	2.20434	-0.97062	1.03623
404.000	1.59503	2.16463	-0.99631	1.02628
405.000	1.56540	2.15076	-0.98840	0.94873
406.000	1.55947	2.11899	-1.01410	0.90697
407.000	1.51008	2.07534	-1.05560	0.90496
408.000	1.53774	2.03361	-1.12675	0.77171
409.000	1.49625	1.98597	-1.10106	0.71205
410.000	1.52193	1.92239	-1.07339	0.68620
411.000	1.47254	1.96017	-1.14453	0.56885
412.000	1.39351	1.85097	-1.15441	0.57083
413.000	1.43698	1.83306	-1.15837	0.51316
414.000	1.37375	1.72581	-1.18208	0.54895
415.000	1.32040	1.70995	-1.14848	0.47139
416.000	1.35992	1.66422	-1.17418	0.42564
417.000	1.37178	1.73178	-1.17615	0.47934
418.000	1.37968	1.73376	-1.20184	0.51116
419.000	1.36387	1.66223	-1.16627	0.46741
420.000	1.38956	1.72183	-1.16429	0.55492
421.000	1.42513	1.72180	-1.14651	0.52310
422.000	1.45081	1.78338	-1.12477	0.58675
423.000	1.46464	1.77939	-1.13860	0.55493
424.000	1.47057	1.80720	-1.17220	0.56287
425.000	1.43896	1.77345	-1.16034	0.62652
426.000	1.47254	1.83700	-1.10501	0.59471
427.000	1.47452	1.86879	-1.11687	0.60863
428.000	1.50020	1.83897	-1.15046	0.66033
429.000	1.51008	1.93630	-1.17220	0.69811
430.000	1.49032	1.87871	-1.15046	0.67027
431.000	1.48637	1.87474	-1.16429	0.63050
432.000	1.49230	1.86083	-1.12082	0.64642
433.000	1.48637	1.86878	-1.13268	0.64840
434.000	1.46069	1.83701	-1.14651	0.61260
435.000	1.48835	1.85090	-1.12675	0.63448
436.000	1.47649	1.78733	-1.12872	0.61062
437.000	1.45081	1.80126	-1.12872	0.62851
438.000	1.41129	1.82314	-1.09908	0.62057
439.000	1.46266	1.82112	-1.15837	0.63845
440.000	1.45279	1.81516	-1.15046	0.62254
441.000	1.48045	1.84097	-1.13663	0.61658
442.000	1.44686	1.83106	-1.09513	0.62256
443.000	1.47847	1.80918	-1.14651	0.60266
444.000	1.46266	1.81317	-1.12477	0.67426
445.000	1.46662	1.84297	-1.14256	0.63050
446.000	1.46266	1.83900	-1.12872	0.65039
447.000	1.51008	1.83101	-1.12675	0.63647
448.000	1.44686	1.86682	-1.14256	0.63647
449.000	1.47452	1.85885	-1.07932	0.54897
450.000	1.48835	1.81712	-1.10303	0.63051
451.000	1.48637	1.86282	-1.15244	0.62055
452.000	1.47254	1.80323	-1.12675	0.61260
453.000	1.52786	1.80318	-1.15441	0.58277
454.000	1.49230	1.87473	-1.12872	0.61857
455.000	1.48045	1.78733	-1.11094	0.53902
456.000	1.51403	1.83299	-1.17615	0.60265
457.000	1.52391	1.84888	-1.10501	0.59869
458.000	1.51996	1.86875	-1.14848	0.56885
459.000	1.51206	1.90452	-1.15837	0.64641
460.000	1.48835	1.87076	-1.12279	0.63050
461.000	1.48637	1.87871	-1.18406	0.63845
462.000	1.52984	1.89854	-1.13268	0.61857
463.000	1.48440	1.82706	-1.14651	0.55691
464.000	1.49428	1.81712	-1.16034	0.60066
465.000	1.52391	1.87073	-1.18801	0.63845
466.000	1.50218	1.87671	-1.12872	0.56686
467.000	1.50810	1.82307	-1.11884	0.55891
468.000	1.45081	1.86483	-1.15837	0.65237
469.000	1.49230	1.84295	-1.16429	0.65436
470.000	1.50020	1.82705	-1.17022	0.61856
471.000	1.46464	1.83502	-1.18208	0.64441
472.000	1.51206	1.86876	-1.18406	0.71004
473.000	1.48045	1.88468	-1.18801	0.68419
474.000	1.50613	1.85088	-1.12872	0.71801
475.000	1.51798	1.81511	-1.16825	0.70010
476.000	1.51996	1.91444	-1.12477	0.67625
477.000	1.54762	1.86674	-1.14256	0.66630
478.000	1.52193	1.81511	-1.15046	0.72994
479.000	1.56145	1.88063	-1.15046	0.70011
480.000	1.55947	1.86872	-1.16429	0.65436
481.000	1.52589	1.88265	-1.13268	0.64840
482.000	1.50020	1.90651	-1.14256	0.64840
483.000	1.50218	1.86082	-1.15441	0.66232
484.000	1.55947	1.87666	-1.16429	0.64243
485.000	1.47254	1.85290	-1.16034	0.63845
486.000	1.49823	1.83499	-1.14848	0.65834
487.000	1.51008	1.79922	-1.16429	0.62851
488.000	1.48835	1.81911	-1.12675	0.67028
489.000	1.50613	1.78731	-1.16627	0.69811
490.000	1.53774	1.82701	-1.17418	0.68021
491.000	1.50218	1.80718	-1.13860	0.67823
492.000	1.52589	1.83298	-1.12279	0.64244
493.000	1.51206	1.82505	-1.12872	0.68022
494.000	1.52193	1.79325	-1.16825	0.69414
495.000	1.54959	1.83892	-1.19789	0.66430
496.000	1.53379	1.82304	-1.12872	0.64641
497.000	1.54564	1.82899	-1.15639	0.65039
498.000	1.50613	1.83300	-1.14256	0.66033
499.000	1.52786	1.78331	-1.19789	0.64839
500.000	1.50613	1.82307	-1.17813	0.66828
501.000	1.53181	1.86874	-1.16034	0.63646
502.000	1.49230	1.82705	-1.15244	0.63050
503.000	1.51403	1.83498	-1.09315	0.63250
504.000	1.50810	1.80916	-1.16825	0.65237
505.000	1.52589	1.83696	-1.19196	0.67026
506.000	1.52391	1.79723	-1.17813	0.60663
507.000	1.51601	1.78134	-1.15837	0.65436
508.000	1.56540	1.82500	-1.12872	0.60465
509.000	1.56145	1.87269	-1.16825	0.63447
510.000	1.52984	1.77735	-1.17220	0.65436
511.000	1.54959	1.90051	-1.15046	0.65039
512.000	1.52984	1.80119	-1.21370	0.64441
513.000	1.56737	1.82500	-1.21963	0.61060
514.000	1.52984	1.82305	-1.21567	0.61457
515.000	1.55354	1.85283	-1.16627	0.59867
516.000	1.51403	1.83697	-1.18998	0.65634
517.000	1.54762	1.81906	-1.18010	0.62453
518.000	1.55354	1.85283	-1.19591	0.62850
519.000	1.54564	1.82701	-1.18406	0.62850
520.000	1.54564	1.76542	-1.15244	0.61061
521.000	1.49625	1.76546	-1.19789	0.61259
522.000	1.53971	1.84489	-1.21567	0.63844
523.000	1.54169	1.84092	-1.17418	0.61856
524.000	1.49625	1.83698	-1.15046	0.58476
525.000	1.59898	1.82497	-1.21567	0.57679
526.000	1.53971	1.89058	-1.16429	0.58475
527.000	1.51601	1.85882	-1.19394	0.57480
528.000	1.53181	1.82106	-1.17022	0.60862
529.000	1.51206	1.84889	-1.18010	0.64044
530.000	1.53379	1.83298	-1.18998	0.59270
531.000	1.53576	1.88264	-1.18998	0.61856
532.000	1.56737	1.81110	-1.22555	0.60861
533.000	1.56342	1.81507	-1.17418	0.63049
534.000	1.58318	1.82896	-1.16825	0.57481
535.000	1.54367	1.80118	-1.20975	0.59270
536.000	1.51008	1.85684	-1.19789	0.53900
537.000	1.52193	1.83497	-1.18801	0.59270
538.000	1.55947	1.83693	-1.21370	0.51911
539.000	1.57132	1.84884	-1.18603	0.55691
540.000	1.51798	1.79723	-1.22160	0.62054
541.000	1.57725	1.82897	-1.17813	0.57680
542.000	1.54367	1.87866	-1.19789	0.50917
543.000	1.55354	1.87468	-1.21172	0.57281
544.000	1.51008	1.87472	-1.17022	0.52906
545.000	1.51798	1.88663	-1.18603	0.50520
546.000	1.55552	1.82303	-1.19394	0.52110
547.000	1.58318	1.82102	-1.23148	0.52110
548.000	1.55157	1.87667	-1.19789	0.51713
549.000	1.54564	1.84290	-1.20579	0.50917
550.000	1.51206	1.81114	-1.15441	0.49725
551.000	1.55157	1.84687	-1.19987	0.49724
552.000	1.55157	1.78329	-1.18010	0.51116
553.000	1.56342	1.82898	-1.20579	0.48928
554.000	1.53576	1.83695	-1.16825	0.43161
555.000	1.53576	1.80119	-1.15639	0.48531
556.000	1.57330	1.85678	-1.14848	0.46542
557.000	1.51601	1.85286	-1.19789	0.52110
558.000	1.55552	1.83892	-1.15639	0.43957
559.000	1.55947	1.81508	-1.12872	0.56885
560.000	1.57725	1.85678	-1.14651	0.50520
561.000	1.53379	1.79523	-1.17813	0.53105
562.000	1.54367	1.84489	-1.17813	0.50917
563.000	1.55749	1.78130	-1.18998	0.47735
564.000	1.55354	1.80713	-1.18208	0.50122
565.000	1.50415	1.76943	-1.17615	0.51912
566.000	1.51798	1.80716	-1.20382	0.52309
567.000	1.51206	1.76743	-1.15639	0.53106
568.000	1.49625	1.75354	-1.19987	0.50320
569.000	1.50810	1.77936	-1.18208	0.50122
570.000	1.53576	1.85483	-1.13860	0.52708
571.000	1.54564	1.71575	-1.19591	0.59469
572.000	1.50218	1.78135	-1.17813	0.56486
573.000	1.52391	1.77338	-1.18010	0.55492
574.000	1.53181	1.76344	-1.21567	0.53701
575.000	1.51403	1.72173	-1.20184	0.58872
576.000	1.60886	1.79715	-1.18998	0.58873
577.000	1.57132	1.72566	-1.11884	0.59868
578.000	1.57330	1.72765	-1.16825	0.59271
579.000	1.50020	1.70187	-1.14848	0.65039
580.000	1.46859	1.68600	-1.17022	0.61260
581.000	1.49428	1.69989	-1.16034	0.63646
582.000	1.48242	1.67407	-1.19789	0.59270
583.000	1.46069	1.70190	-1.17813	0.65834
584.000	1.47452	1.76150	-1.16429	0.58674
585.000	1.46069	1.73966	-1.14256	0.62652
586.000	1.45871	1.73966	-1.21963	0.50519
587.000	1.47057	1.72574	-1.22753	0.56286
588.000	1.46464	1.75754	-1.22753	0.60264
589.000	1.45081	1.75357	-1.24927	0.47336
590.000	1.49625	1.78334	-1.22753	0.47138
591.000	1.52786	1.78530	-1.23939	0.47734
592.000	1.51996	1.74954	-1.25717	0.45745
593.000	1.51601	1.84293	-1.27693	0.48728
594.000	1.53774	1.81708	-1.25717	0.48927
595.000	1.54169	1.78926	-1.28681	0.42165
596.000	1.52589	1.79524	-1.25915	0.38983
597.000	1.53181	1.83099	-1.26310	0.39580
598.000	1.54959	1.83694	-1.28286	0.44352
599.000	1.56737	1.81308	-1.27100	0.40176
600.000	1.50020	1.80122	-1.26310	0.41767
601.000	1.49625	1.78334	-1.26310	0.45148
602.000	1.53181	1.76940	-1.22555	0.47138
603.000	1.50613	1.77141	-1.25322	0.46938
604.000	1.48045	1.77143	-1.24729	0.40176
605.000	1.51008	1.75551	-1.24136	0.48331
606.000	1.51403	1.77737	-1.25124	0.47336
607.000	1.50415	1.78929	-1.30064	0.44153
608.000	1.53181	1.70582	-1.21963	0.42762
609.000	1.49823	1.75552	-1.26112	0.44949
610.000	1.52391	1.80517	-1.22160	0.45348
611.000	1.50415	1.74161	-1.24532	0.44950
612.000	1.55354	1.75548	-1.22555	0.47734
613.000	1.49428	1.73566	-1.17615	0.48531
614.000	1.47847	1.76746	-1.18998	0.49724
615.000	1.52786	1.76146	-1.19591	0.50718
616.000	1.51403	1.71776	-1.20579	0.56088
617.000	1.52193	1.78332	-1.18603	0.55889
618.000	1.50020	1.78532	-1.18603	0.52508
619.000	1.48835	1.76944	-1.20579	0.49127
620.000	1.50218	1.76943	-1.20579	0.53900
621.000	1.57132	1.79718	-1.22753	0.53303
622.000	1.51996	1.76941	-1.16627	0.58873
623.000	1.52589	1.77537	-1.19987	0.51116
624.000	1.55552	1.76541	-1.20184	0.62452
625.000	1.54564	1.78131	-1.16232	0.57879
626.000	1.53774	1.74158	-1.17615	0.52111
627.000	1.52984	1.76543	-1.15837	0.61260
628.000	1.53379	1.80318	-1.12675	0.59669
629.000	1.55354	1.74753	-1.14256	0.60266
630.000	1.52786	1.70583	-1.18406	0.53702
631.000	1.52589	1.77338	-1.14058	0.51316
632.000	1.48242	1.70387	-1.17813	0.58276
633.000	1.54367	1.71575	-1.16429	0.54299
634.000	1.52589	1.74358	-1.17418	0.51912
635.000	1.56935	1.67797	-1.12477	0.52311
636.000	1.49428	1.68598	-1.14848	0.49327
637.000	1.47649	1.65420	-1.20184	0.51514
638.000	1.51008	1.75353	-1.16429	0.40774
639.000	1.53576	1.73960	-1.15441	0.43360
640.000	1.47254	1.82707	-1.14848	0.41570
641.000	1.49230	1.73963	-1.14256	0.35007
642.000	1.51206	1.72968	-1.17615	0.41570
643.000	1.53971	1.76145	-1.18603	0.36597
644.000	1.52391	1.72570	-1.18406	0.40376
645.000	1.51601	1.80915	-1.17813	0.41570
646.000	1.50218	1.80320	-1.11291	0.36996
647.000	1.50415	1.76545	-1.13070	0.38388
648.000	1.53181	1.76940	-1.19591	0.36000
649.000	1.46662	1.80919	-1.14256	0.39382
650.000	1.54564	1.80118	-1.12477	0.37593
651.000	1.50810	1.85287	-1.16429	0.38388
652.000	1.50810	1.80717	-1.18801	0.41371
653.000	1.49032	1.76348	-1.19196	0.43757
654.000	1.49625	1.73367	-1.18406	0.39183
655.000	1.48835	1.73367	-1.17220	0.42962
656.000	1.51206	1.74160	-1.11687	0.43957
657.000	1.48440	1.74163	-1.18208	0.43757
658.000	1.50613	1.72373	-1.18010	0.43956
659.000	1.51008	1.73167	-1.16034	0.45349
660.000	1.51403	1.72173	-1.13663	0.46145
661.000	1.51996	1.72371	-1.12872	0.45548
662.000	1.51798	1.70981	-1.13268	0.40377
663.000	1.52391	1.75351	-1.20975	0.38984
664.000	1.52984	1.75152	-1.18801	0.40774
665.000	1.51601	1.76544	-1.19591	0.42166
666.000	1.53181	1.79324	-1.16627	0.42167
667.000	1.52589	1.72172	-1.16825	0.47139
668.000	1.50810	1.72770	-1.17220	0.44354
669.000	1.54169	1.75350	-1.15441	0.45150
670.000	1.53576	1.82106	-1.20579	0.49127
671.000	1.52786	1.77338	-1.17615	0.40774
672.000	1.52391	1.74358	-1.19591	0.48332
673.000	1.56935	1.80513	-1.17813	0.43161
674.000	1.51403	1.77140	-1.18603	0.51713
675.000	1.48835	1.73964	-1.14848	0.36001
676.000	1.55354	1.75349	-1.13465	0.39184
677.000	1.52984	1.75351	-1.16825	0.39979
678.000	1.50810	1.74757	-1.18010	0.41172
679.000	1.52193	1.75749	-1.18998	0.39780
680.000	1.51008	1.77141	-1.18998	0.39780
681.000	1.53774	1.78331	-1.20777	0.42763
682.000	1.55552	1.77137	-1.21370	0.40575
683.000	1.51008	1.77538	-1.17418	0.37393
684.000	1.49230	1.76347	-1.17418	0.41570
685.000	1.54169	1.82502	-1.15441	0.45747
686.000	1.49230	1.80520	-1.19789	0.41371
687.000	1.50218	1.78532	-1.18998	0.44752
688.000	1.51798	1.77935	-1.21567	0.37591
689.000	1.47847	1.81713	-1.20777	0.37989
690.000	1.52786	1.80318	-1.23148	0.44552
691.000	1.53971	1.83099	-1.18998	0.38984
692.000	1.52391	1.79921	-1.17022	0.43559
693.000	1.51798	1.78134	-1.18998	0.40774
694.000	1.51996	1.86875	-1.19196	0.40575
695.000	1.47847	1.73368	-1.17418	0.41769
696.000	1.52786	1.78927	-1.16232	0.36399
697.000	1.47649	1.76150	-1.17615	0.44354
698.000	1.48242	1.75554	-1.20579	0.41172
699.000	1.48440	1.74163	-1.18406	0.39183
700.000	1.49625	1.77142	-1.25124	0.36199
701.000	1.51798	1.79723	-1.20975	0.41967
702.000	1.47254	1.80124	-1.15244	0.42962
703.000	1.50613	1.74359	-1.18603	0.43757
704.000	1.49032	1.79129	-1.18406	0.43757
705.000	1.52193	1.80120	-1.21765	0.40376
706.000	1.51403	1.76743	-1.17813	0.38984
707.000	1.48440	1.77938	-1.16034	0.39382
708.000	1.48045	1.81514	-1.21963	0.48331
709.000	1.48242	1.78136	-1.19789	0.43558
710.000	1.47847	1.72971	-1.17022	0.41172
711.000	1.52589	1.76941	-1.21172	0.44354
712.000	1.50613	1.74956	-1.19394	0.41569
713.000	1.50020	1.73963	-1.16627	0.37393
714.000	1.48440	1.79130	-1.16034	0.38984
715.000	1.49625	1.75552	-1.17418	0.38984
716.000	1.50218	1.71975	-1.16232	0.40575
717.000	1.51403	1.73961	-1.13070	0.43162
718.000	1.48835	1.70188	-1.16232	0.42962
719.000	1.49230	1.81116	-1.19591	0.44553
720.000	1.49823	1.72969	-1.19196	0.43558
721.000	1.46859	1.75555	-1.18406	0.36995
722.000	1.41722	1.77148	-1.20777	0.44950
723.000	1.44488	1.74762	-1.19394	0.43161
724.000	1.51996	1.77935	-1.18998	0.36796
725.000	1.51008	1.82505	-1.19394	0.39978
726.000	1.51403	1.79127	-1.11687	0.42565
727.000	1.48637	1.76149	-1.15639	0.45747
728.000	1.49823	1.79129	-1.23148	0.38586
729.000	1.47254	1.76349	-1.16034	0.39780
730.000	1.53181	1.74556	-1.16825	0.41570
731.000	1.51798	1.80319	-1.14651	0.45946
732.000	1.49032	1.76944	-1.13663	0.35603
733.000	1.46266	1.79529	-1.17022	0.42962
734.000	1.47452	1.74163	-1.16034	0.44553
735.000	1.50020	1.76943	-1.15244	0.40377
736.000	1.47057	1.76349	-1.18208	0.42166
737.000	1.46859	1.69594	-1.15639	0.45946
738.000	1.51206	1.74558	-1.20382	0.42365
739.000	1.45081	1.74563	-1.11291	0.42366
740.000	1.46859	1.70786	-1.12675	0.44554
741.000	1.51996	1.77339	-1.17022	0.34211
742.000	1.49032	1.73566	-1.12872	0.40576
743.000	1.51798	1.73762	-1.18603	0.39780
744.000	1.49230	1.72374	-1.13465	0.43559
745.000	1.45081	1.74364	-1.20382	0.42962
746.000	1.51798	1.74359	-1.19196	0.43757
747.000	1.44686	1.71781	-1.16232	0.43758
748.000	1.50218	1.71777	-1.14453	0.42167
749.000	1.53576	1.72171	-1.10106	0.42565
750.000	1.46266	1.73369	-1.14848	0.42764
751.000	1.46069	1.67408	-1.14453	0.52708
752.000	1.46662	1.75753	-1.16825	0.44354
753.000	1.52391	1.69788	-1.15837	0.46145
754.000	1.48637	1.74162	-1.15639	0.44355
755.000	1.52786	1.71775	-1.09908	0.44156
756.000	1.47254	1.76746	-1.12477	0.53504
757.000	1.43698	1.74365	-1.09513	0.44157
758.000	1.50020	1.75155	-1.13268	0.45349
759.000	1.52193	1.72967	-1.09513	0.46344
760.000	1.51601	1.79524	-1.11094	0.51913
761.000	1.47452	1.74561	-1.09117	0.48532
762.000	1.55354	1.68991	-1.12872	0.45349
763.000	1.52589	1.73762	-1.11489	0.47935
764.000	1.51206	1.75352	-1.12872	0.47935
765.000	1.51403	1.78134	-1.06746	0.47936
766.000	1.45674	1.78536	-1.13070	0.49924
767.000	1.55354	1.76342	-1.11489	0.50720
768.000	1.55749	1.73362	-1.12279	0.48134
769.000	1.47057	1.74958	-1.08722	0.50720
770.000	1.47452	1.78336	-1.10896	0.44753
771.000	1.52193	1.76146	-1.08524	0.48333
772.000	1.51798	1.70583	-1.12082	0.46543
773.000	1.49625	1.70982	-1.09908	0.47935
774.000	1.51601	1.74557	-1.18010	0.47735
775.000	1.50218	1.71777	-1.09117	0.50720
776.000	1.50613	1.75750	-1.12477	0.48731
777.000	1.52589	1.74755	-1.13268	0.41769
778.000	1.50613	1.75750	-1.10896	0.42963
779.000	1.53971	1.76741	-1.15046	0.40775
780.000	1.50020	1.69989	-1.10896	0.44554
781.000	1.48440	1.77739	-1.12082	0.37593
782.000	1.49428	1.77539	-1.16825	0.46542
783.000	1.52589	1.73166	-1.10106	0.45151
784.000	1.43896	1.76948	-1.12082	0.43559
785.000	1.49625	1.80520	-1.09513	0.39184
786.000	1.49823	1.73367	-1.15244	0.44156
787.000	1.48835	1.81514	-1.14256	0.40775
788.000	1.48637	1.73169	-1.13465	0.36001
789.000	1.49032	1.77540	-1.11687	0.40974
790.000	1.51206	1.71379	-1.12872	0.41968
791.000	1.48242	1.72971	-1.12872	0.38388
792.000	1.48242	1.73765	-1.11687	0.41968
793.000	1.50613	1.77141	-1.14651	0.37990
794.000	1.47254	1.78733	-1.12279	0.35007
795.000	1.48637	1.74957	-1.15639	0.37592
796.000	1.51206	1.78531	-1.13465	0.41371
797.000	1.48637	1.74560	-1.11687	0.43957
798.000	1.46464	1.80721	-1.13465	0.42565
799.000	1.50020	1.79128	-1.07734	0.43958
800.000	1.46662	1.85489	-1.14256	0.43161
801.000	1.46859	1.79131	-1.18603	0.42564
802.000	1.47452	1.77342	-1.14651	0.48531
803.000	1.47057	1.77541	-1.14848	0.48531
804.000	1.51206	1.75949	-1.12279	0.44355
805.000	1.46069	1.75754	-1.12082	0.39780
806.000	1.45476	1.75754	-1.13860	0.44554
807.000	1.47847	1.78335	-1.12279	0.41173
808.000	1.51798	1.77935	-1.12279	0.45747
809.000	1.47649	1.79925	-1.10106	0.43560
810.000	1.47847	1.75554	-1.17813	0.47735
811.000	1.49032	1.75354	-1.13663	0.41173
812.000	1.43500	1.72775	-1.17022	0.40178
813.000	1.43500	1.77345	-1.15441	0.45150
814.000	1.45081	1.73768	-1.15441	0.49923
815.000	1.44291	1.77544	-1.10698	0.43361
816.000	1.44686	1.75556	-1.17813	0.43758
817.000	1.41327	1.71982	-1.16825	0.39183
818.000	1.47254	1.71183	-1.14256	0.47338
819.000	1.39549	1.68009	-1.16034	0.41172
820.000	1.47847	1.74362	-1.15837	0.37791
821.000	1.47057	1.74561	-1.14058	0.44156
822.000	1.43500	1.75557	-1.10106	0.42963
823.000	1.42908	1.78935	-1.12279	0.44753
824.000	1.40537	1.74566	-1.18406	0.40774
825.000	1.43896	1.75160	-1.12477	0.41769
826.000	1.42117	1.73571	-1.18010	0.39979
827.000	1.43896	1.82908	-1.09117	0.42764
828.000	1.43105	1.73372	-1.15441	0.39979
829.000	1.41327	1.79731	-1.14848	0.41371
830.000	1.44686	1.78735	-1.12082	0.43559
831.000	1.46859	1.83899	-1.16825	0.37393
832.000	1.48835	1.84096	-1.14256	0.30830
833.000	1.45279	1.77940	-1.11291	0.32024
834.000	1.48045	1.81713	-1.17615	0.31426
835.000	1.44883	1.77940	-1.18208	0.32421
836.000	1.43500	1.79928	-1.13663	0.31824
837.000	1.39154	1.73772	-1.16034	0.33614
838.000	1.44291	1.75755	-1.19789	0.42166
839.000	1.47847	1.81117	-1.16232	0.34012
840.000	1.45674	1.76549	-1.16627	0.34012
841.000	1.40537	1.81918	-1.16232	0.38587
842.000	1.43698	1.72179	-1.17813	0.36796
843.000	1.48637	1.75752	-1.15244	0.38189
844.000	1.47254	1.76349	-1.16825	0.39581
845.000	1.48835	1.80719	-1.15639	0.36001
846.000	1.42513	1.78340	-1.11884	0.38388
847.000	1.46266	1.78734	-1.18603	0.40575
848.000	1.44291	1.76550	-1.14256	0.33614
849.000	1.45871	1.77741	-1.17615	0.37990
850.000	1.47649	1.72971	-1.08920	0.36599
851.000	1.47057	1.75356	-1.14058	0.40576
852.000	1.47254	1.72375	-1.16825	0.35205
853.000	1.50218	1.71777	-1.18208	0.40177
854.000	1.43698	1.70590	-1.15837	0.36001
855.000	1.47254	1.73170	-1.12477	0.40576
856.000	1.43500	1.74762	-1.12872	0.40576
857.000	1.42315	1.78340	-1.11884	0.39582
858.000	1.46069	1.74959	-1.13465	0.34211
859.000	1.46266	1.76151	-1.16627	0.35802
860.000	1.47452	1.77938	-1.14453	0.39382
861.000	1.48242	1.78136	-1.08920	0.41770
862.000	1.41129	1.69598	-1.12872	0.35405
863.000	1.45476	1.76152	-1.13268	0.35405
864.000	1.47452	1.77144	-1.15244	0.41172
865.000	1.48242	1.78136	-1.14058	0.41570
866.000	1.48045	1.77342	-1.14453	0.40576
867.000	1.46069	1.73767	-1.15639	0.34012
868.000	1.47452	1.75952	-1.12082	0.35007
869.000	1.47649	1.74561	-1.12082	0.32222
870.000	1.46266	1.77741	-1.12477	0.33217
871.000	1.44488	1.71980	-1.08129	0.34610
872.000	1.45279	1.77145	-1.09513	0.32620
873.000	1.46859	1.78734	-1.11884	0.38388
874.000	1.45081	1.74364	-1.12477	0.35405
875.000	1.42710	1.74962	-1.10501	0.38190
876.000	1.45476	1.74761	-1.09908	0.34013
877.000	1.41920	1.72777	-1.12675	0.35405
878.000	1.45279	1.74562	-1.14848	0.39581
879.000	1.43500	1.76749	-1.11884	0.39383
880.000	1.46069	1.74760	-1.13268	0.43559
881.000	1.46859	1.78336	-1.10896	0.42167
882.000	1.44291	1.72775	-1.07339	0.42765
883.000	1.46859	1.74164	-1.11094	0.37394
884.000	1.44291	1.69596	-1.05955	0.35207
885.000	1.47254	1.72375	-1.07141	0.37195
886.000	1.45871	1.73966	-1.08722	0.36599
887.000	1.43698	1.76352	-1.11489	0.41968
888.000	1.42513	1.74962	-1.10303	0.36797
889.000	1.46662	1.75952	-1.03386	0.41771
890.000	1.44883	1.74960	-1.06153	0.34212
891.000	1.44883	1.73967	-1.10896	0.34013
892.000	1.45081	1.73172	-1.06153	0.39582
893.000	1.46464	1.71382	-1.04769	0.39781
894.000	1.41525	1.74367	-1.10698	0.42963
895.000	1.43896	1.71782	-1.06943	0.38787
896.000	1.49230	1.74162	-1.01607	0.40379
897.000	1.41722	1.72975	-1.00619	0.37395
898.000	1.45476	1.75158	-1.06943	0.40975
899.000	1.42908	1.75160	-1.09117	0.40576
900.000	1.47847	1.70984	-1.06153	0.35803
901.000	1.43896	1.71782	-1.04177	0.40975
902.000	1.47452	1.71779	-1.08722	0.37394
903.000	1.39944	1.69798	-1.07734	0.35803
904.000	1.44093	1.69993	-1.02003	0.37793
905.000	1.43105	1.70193	-1.05560	0.40975
906.000	1.39944	1.67214	-1.00421	0.39583
907.000	1.42117	1.66219	-0.99236	0.48534
908.000	1.37771	1.63838	-1.02398	0.39583
909.000	1.47254	1.69991	-1.04374	0.49726
910.000	1.39351	1.67016	-1.08722	0.44952
911.000	1.43105	1.68404	-1.04374	0.46942
912.000	1.41327	1.68406	-1.05165	0.45152
913.000	1.46464	1.67607	-1.03584	0.42964
914.000	1.44686	1.73172	-1.03386	0.44953
915.000	1.40932	1.72579	-1.02398	0.40776
916.000	1.38758	1.71785	-0.99829	0.40578
917.000	1.34609	1.68212	-1.03386	0.42566
918.000	1.36783	1.75960	-1.04769	0.43163
919.000	1.34016	1.74571	-1.14256	0.44554
920.000	1.30855	1.78348	-1.08920	0.44554
921.000	1.35399	1.78544	-1.12872	0.48333
922.000	1.36585	1.83113	-1.11094	0.49526
923.000	1.43303	1.71981	-1.03979	0.42964
924.000	1.49625	1.75751	-0.95480	0.51717
925.000	1.60688	1.62827	-0.79668	0.38790
926.000	1.69577	1.61627	-0.54366	0.44560
927.000	1.87551	1.57042	-0.41714	0.40583
928.000	2.13418	1.49269	-0.19572	0.38196
929.000	2.31579	1.44086	0.05536	0.36406
930.000	2.62954	1.36505	0.35586	0.44562
931.000	2.83468	1.34297	0.69587	0.49930
932.000	3.05947	1.25533	0.96469	0.40379
933.000	3.32356	1.20141	1.20777	0.30829
934.000	3.52450	1.16543	1.50218	0.24462
935.000	3.73519	1.10166	1.75700	0.27640
936.000	4.00480	1.14297	2.01769	0.22864
937.000	4.18969	1.14072	2.15392	0.17495
938.000	4.32535	0.98782	2.49932	0.11329
939.000	4.59849	1.11432	2.71240	0.14308
940.000	4.79683	1.13382	2.88596	0.11921
941.000	4.99505	1.03641	3.06341	0.05960
942.000	5.20100	1.10144	3.24868	0.01390
943.000	5.34606	1.07742	3.45950	0.00794
944.000	5.47343	1.05344	3.58752	0.02780
945.000	5.78670	1.10827	3.76472	-0.08338
946.000	5.87084	1.04084	3.94775	-0.06550
947.000	6.05662	0.92578	4.11299	-0.06548
948.000	6.25596	0.91159	4.22902	-0.12896
949.000	6.33995	0.96877	4.29194	-0.15077
950.000	6.51174	0.90323	4.39415	-0.21224
951.000	6.61906	0.88328	4.53956	-0.24790
952.000	6.77312	0.89485	4.61814	-0.26572
953.000	6.86278	0.83939	4.72419	-0.21809
954.000	6.96604	0.86093	4.83413	-0.17445
955.000	6.97383	0.85302	4.82824	-0.18040
956.000	6.99720	0.86877	4.95974	-0.24378
957.000	7.07120	0.84692	4.96170	-0.06144
958.000	6.99915	0.84705	5.00683	-0.10306
959.000	7.04784	0.90420	5.03233	-0.07134
960.000	7.05563	0.97919	4.99113	-0.06144
961.000	7.01278	0.93388	4.96366	-0.06541
962.000	7.03615	1.01476	5.02448	-0.03567
963.000	6.96214	1.02677	4.96955	-0.11495
964.000	6.85888	0.98948	4.99309	-0.13477
965.000	6.89006	0.97559	4.99505	-0.13279
966.000	6.81795	0.98956	4.92441	-0.15658
967.000	6.78676	0.98963	4.95189	-0.10108
968.000	6.74777	0.90082	4.92834	-0.11298
969.000	6.72242	0.90482	4.91853	-0.07532
970.000	6.71852	0.93643	4.87731	-0.09118
971.000	6.64246	0.84175	4.89890	-0.02775
972.000	6.68342	0.86934	4.85572	-0.08326
973.000	6.68537	0.92069	4.90675	-0.10109
974.000	6.71072	0.87126	4.95974	-0.07135
975.000	6.77896	0.89089	4.92638	-0.10505
976.000	6.82185	0.91846	4.92441	-0.08919
977.000	6.85303	0.94210	4.92834	-0.12289
978.000	6.89201	0.91635	4.91068	-0.09712
979.000	6.89785	0.96965	4.98524	-0.09711
980.000	6.94851	0.90242	4.95189	-0.08126
981.000	7.00305	0.95759	4.97347	-0.15856
982.000	6.96409	0.94977	4.99113	-0.10306
983.000	7.02447	0.89635	4.97151	-0.08919
984.000	6.94071	0.94587	4.96170	-0.13676
985.000	6.99526	0.98919	4.98524	-0.11693
986.000	7.02057	0.98124	4.96955	-0.11495
987.000	7.00694	0.99311	4.99898	-0.15855
988.000	7.00889	0.94771	4.97543	-0.13874
989.000	6.96020	0.93991	4.97151	-0.04360
990.000	6.94656	1.00509	4.99898	-0.13080
991.000	7.00889	1.03851	4.97740	-0.08721
992.000	6.97773	0.98725	4.94208	-0.12090
993.000	6.94071	0.96759	4.95777	-0.06541
994.000	6.96604	1.00899	4.95189	-0.01784
995.000	6.96214	0.95965	5.00486	-0.07333
996.000	7.01473	1.01284	4.96759	-0.05946
997.000	6.97967	0.94777	4.96562	-0.03568
998.000	7.00694	0.94574	4.96366	-0.09513
999.000	6.96409	0.98926	4.91264	-0.06343
1000.000	7.02836	1.00096	4.96170	-0.02775
1001.000	6.97578	0.96159	4.96366	-0.04757
1002.000	6.95825	0.99322	4.95189	-0.10703
1003.000	6.99720	0.93194	4.93423	-0.07928
1004.000	6.97967	0.99909	4.94404	-0.04955
1005.000	7.01863	0.96348	4.91264	-0.03171
1006.000	6.97578	0.97146	4.91853	-0.09712
1007.000	6.99136	0.94379	4.91656	-0.03370
1008.000	6.99526	0.94773	4.93423	-0.07334
1009.000	7.01278	0.96152	4.93619	-0.14469
1010.000	7.01473	0.95164	4.93030	-0.08127
1011.000	6.96409	0.94385	4.92834	-0.11298
1012.000	7.03031	0.95556	4.93619	-0.08523
1013.000	7.00305	0.96154	4.92834	-0.05946
1014.000	7.03226	0.98516	4.93226	-0.14271
1015.000	7.03226	0.94174	4.92049	-0.07532
1016.000	7.02836	0.96543	4.89105	-0.07929
1017.000	7.01668	0.97533	4.94208	-0.09117
1018.000	7.00694	0.99509	4.92049	-0.10703
1019.000	7.03615	0.98910	4.90675	-0.06145
1020.000	7.01473	0.99112	4.92834	-0.01982
1021.000	7.01084	0.95363	4.95581	-0.06739
1022.000	6.99526	0.97340	4.87731	-0.06938
1023.000	7.06147	1.00089	4.90675	-0.07136
1024.000	7.09067	0.99688	4.92245	-0.08523
1025.000	7.04200	0.98317	4.89301	-0.09911
1026.000	7.05368	1.00880	4.97151	-0.02378
1027.000	7.07510	1.00481	4.93030	-0.04955
1028.000	7.08094	1.07585	4.91656	-0.04559
1029.000	7.05952	1.04037	4.95974	-0.10306
1030.000	7.07120	0.99692	4.91853	-0.02775
1031.000	7.07315	1.03837	4.86161	-0.00793
1032.000	7.06342	1.01668	4.89890	-0.01189
1033.000	7.07315	1.03639	4.91068	0.09514
1034.000	7.12182	0.98300	4.87535	0.04163
1035.000	7.10625	1.00869	4.90871	0.03964
1036.000	7.12961	1.07573	4.88909	0.00991
1037.000	7.11598	1.07577	4.88516	-0.01189
1038.000	7.11403	1.06590	4.90675	0.06343
1039.000	7.10819	1.10736	4.90479	0.03568
1040.000	7.14323	1.08359	4.86946	0.06541
1041.000	7.14323	1.10530	4.88909	0.05352
1042.000	7.15296	1.10922	4.88516	0.00991
1043.000	7.14518	1.10332	4.87535	0.05550
1044.000	7.13934	1.17832	4.84591	0.09119
1045.000	7.14713	1.12108	4.86946	0.10704
1046.000	7.11987	1.15469	4.84002	0.07335
1047.000	7.13739	1.19806	4.88909	0.05748
1048.000	7.10041	1.15079	4.85572	0.09317
1049.000	7.10430	1.09158	4.84198	0.02775
1050.000	7.16075	1.12499	4.89105	0.00793
1051.000	7.14323	1.15068	4.85769	0.00396
1052.000	7.14713	1.11318	4.86750	-0.00595
1053.000	7.17243	1.08353	4.87142	0.14272
1054.000	7.14518	1.07372	4.81450	0.13679
1055.000	7.17243	1.12891	4.84395	0.05749
1056.000	7.16270	1.15064	4.88713	0.05154
1057.000	7.18410	1.13282	4.87142	0.09713
1058.000	7.21524	1.17220	4.82039	0.04758
1059.000	7.21913	1.13668	4.90871	0.06145
1060.000	7.23664	1.13861	4.86161	0.00991
1061.000	7.22302	1.16627	4.88124	0.12092
1062.000	7.18021	1.18413	4.83609	0.10705
1063.000	7.24442	1.10703	4.86161	0.07136
1064.000	7.22108	1.17219	4.90871	0.04559
1065.000	7.25221	1.17211	4.86946	0.08524
1066.000	7.23664	1.10902	4.91460	0.08721
1067.000	7.26972	1.15036	4.85572	0.06145
1068.000	7.24053	1.18003	4.96170	0.07135
1069.000	7.25026	1.12279	4.89694	0.04163
1070.000	7.22302	1.16627	4.95385	0.05550
1071.000	7.25804	1.18393	4.89301	0.12290
1072.000	7.19773	1.13674	4.91264	0.04955
1073.000	7.26972	1.15036	4.88516	0.05352
1074.000	7.25610	1.13856	4.90479	0.05550
1075.000	7.23470	1.18991	4.90871	0.04757
1076.000	7.21135	1.18405	4.89694	0.05550
1077.000	7.27166	1.11485	4.93815	0.02180
1078.000	7.21913	1.14457	4.90479	0.04163
1079.000	7.25026	1.16225	4.92245	0.02379
1080.000	7.18605	1.16439	4.91068	0.06145
1081.000	7.21719	1.15444	4.90283	0.03171
1082.000	7.20940	1.10909	4.94796	0.01387
1083.000	7.25026	1.14055	4.92441	0.08325
1084.000	7.25026	1.08728	4.92441	0.05550
1085.000	7.27944	1.11483	4.91264	0.08721
1086.000	7.22108	1.13076	4.87731	0.05550
1087.000	7.28139	1.13455	4.96170	0.10108
1088.000	7.25999	1.14447	4.92638	0.07928
1089.000	7.23859	1.11099	4.91656	0.08721
1090.000	7.28139	1.14639	4.92441	0.12685
1091.000	7.26193	1.16025	4.90675	0.05550
1092.000	7.29306	1.08718	4.88909	0.17047
1093.000	7.28528	1.15821	4.88124	0.10109
1094.000	7.22302	1.12878	4.90086	0.11695
1095.000	7.26193	1.15236	4.92049	0.09118
1096.000	7.24442	1.20961	4.90675	0.15461
1097.000	7.28333	1.14244	4.95777	0.12685
1098.000	7.22302	1.12089	4.91853	0.03568
1099.000	7.22302	1.10511	4.92245	0.08523
1100.000	7.30473	1.14436	4.92441	0.13280
1101.000	7.28139	1.09115	4.98132	0.11892
1102.000	7.27944	1.17204	4.94404	0.06541
1103.000	7.25804	1.10108	4.88516	0.04956
1104.000	7.28528	1.10298	4.93619	0.14469
1105.000	7.23470	1.06365	4.91656	0.07136
1106.000	7.25610	1.08332	4.91656	0.13280
1107.000	7.32223	1.15220	4.98917	0.09711
1108.000	7.33196	1.14231	4.95189	0.11496
1109.000	7.28722	1.20358	4.87731	0.09911
1110.000	7.32807	1.19755	4.94208	0.12289
1111.000	7.29695	1.15424	4.96562	0.10901
1112.000	7.27166	1.19573	4.97740	0.08522
1113.000	7.36891	1.26252	4.95189	0.11297
1114.000	7.30473	1.20945	4.99113	0.12882
1115.000	7.37863	1.30193	4.96170	0.21405
1116.000	7.33390	1.24290	4.94796	0.14072
1117.000	7.32029	1.17785	4.90871	0.13280
1118.000	7.33390	1.24092	5.00879	0.10306
1119.000	7.32807	1.22911	4.98721	0.12882
1120.000	7.37474	1.25067	5.00290	0.07135
1121.000	7.38835	1.17767	5.04999	0.00198
1122.000	7.40390	1.07113	5.11668	-0.09908
1123.000	7.43112	0.87977	5.12452	-0.29326
1124.000	7.53218	0.75928	5.14806	-0.51317
1125.000	7.53801	0.52066	5.22061	-0.56264
1126.000	7.59824	0.32932	5.25982	-0.68541
1127.000	7.64873	0.12225	5.30490	-0.85965
1128.000	7.65262	0.01775	5.33234	-0.94675
1129.000	7.62931	-0.09859	5.36174	-1.17639
1130.000	7.62154	-0.24451	5.31666	-1.30517
1131.000	7.57687	-0.46343	5.36174	-1.38228
1132.000	7.57298	-0.54034	5.33430	-1.52487
1133.000	7.59629	-0.63495	5.36958	-1.45551
1134.000	7.63320	-0.75122	5.33626	-1.45163
1135.000	7.56910	-0.72372	5.30882	-1.44575
1136.000	7.57298	-0.80456	5.37742	-1.42382
1137.000	7.61377	-0.81828	5.32842	-1.42987
1138.000	7.58658	-0.72961	5.32842	-1.46154
1139.000	7.62737	-0.74334	5.28334	-1.43591
1140.000	7.63125	-0.76896	5.28334	-1.41018
1141.000	7.64291	-0.77486	5.25786	-1.40429
1142.000	7.63514	-0.70981	5.27550	-1.32704
1143.000	7.59824	-0.74536	5.26374	-1.36270
1144.000	7.58852	-0.63891	5.25198	-1.38847
1145.000	7.58270	-0.62117	5.23237	-1.29149
1146.000	7.60018	-0.57382	5.26962	-1.27953
1147.000	7.63514	-0.56786	5.24217	-1.23008
1148.000	7.56133	-0.48513	5.25198	-1.23006
1149.000	7.64873	-0.44363	5.22257	-1.18260
1150.000	7.63708	-0.38252	5.21277	-1.17073
1151.000	7.64485	-0.38054	5.23825	-1.19247
1152.000	7.60018	-0.40227	5.20492	-1.10935
1153.000	7.67980	-0.37263	5.24413	-1.05977
1154.000	7.60018	-0.42002	5.25394	-1.12115
1155.000	7.66233	-0.42193	5.26962	-1.14290
1156.000	7.63125	-0.48308	5.28726	-1.15277
1157.000	7.63514	-0.44365	5.27354	-1.21418
1158.000	7.67009	-0.49093	5.24021	-1.22217
1159.000	7.60989	-0.47325	5.25394	-1.20828
1160.000	7.69145	-0.43570	5.29510	-1.25968
1161.000	7.66815	-0.50276	5.28922	-1.24385
1162.000	7.70310	-0.49680	5.31078	-1.33290
1163.000	7.66233	-0.47319	5.33038	-1.30712
1164.000	7.61183	-0.61127	5.26962	-1.28745
1165.000	7.66427	-0.48502	5.34606	-1.28531
1166.000	7.65067	-0.52249	5.35194	-1.30906
1167.000	7.61766	-0.59746	5.31862	-1.31903
1168.000	7.60406	-0.54227	5.35978	-1.31498
1169.000	7.63708	-0.53828	5.30882	-1.26163
1170.000	7.65844	-0.49883	5.29706	-1.23196
1171.000	7.67398	-0.61709	5.32254	-1.29130
1172.000	7.62349	-0.49887	5.30490	-1.32104
1173.000	7.65262	-0.45546	5.31666	-1.27151
1174.000	7.67009	-0.49487	5.27746	-1.16863
1175.000	7.66427	-0.44953	5.34802	-1.17840
1176.000	7.65456	-0.49489	5.32450	-1.21012
1177.000	7.64679	-0.55996	5.30882	-1.24975
1178.000	7.63708	-0.58166	5.33822	-1.16059
1179.000	7.67203	-0.63090	5.28726	-1.22999
1180.000	7.65456	-0.59346	5.32450	-1.24576
1181.000	7.69728	-0.63283	5.32646	-1.19428
1182.000	7.69922	-0.63086	5.27354	-1.17062
1183.000	7.70504	-0.63085	5.31078	-1.16461
1184.000	7.69339	-0.58355	5.22453	-1.20239
1185.000	7.69728	-0.62889	5.28530	-1.18644
1186.000	7.69533	-0.69985	5.26766	-1.08152
1187.000	7.63902	-0.67235	5.25002	-1.13700
1188.000	7.62349	-0.69406	5.29902	-1.12305
1189.000	7.65067	-0.68219	5.28530	-1.19238
1190.000	7.64485	-0.61516	5.25590	-1.17461
1191.000	7.61766	-0.63295	5.25590	-1.17461
1192.000	7.66621	-0.63485	5.22649	-1.07961
1193.000	7.70893	-0.57565	5.25394	-1.10530
1194.000	7.70893	-0.59930	5.26766	-1.14885
1195.000	7.63708	-0.63095	5.23041	-1.13307
1196.000	7.65650	-0.64669	5.23825	-1.06770
1197.000	7.64873	-0.58953	5.25982	-1.15678
1198.000	7.68757	-0.56385	5.26178	-1.10331
1199.000	7.67592	-0.58161	5.26570	-1.12707
1200.000	7.72834	-0.61898	5.24806	-1.10928
1201.000	7.71863	-0.55395	5.25002	-1.13700
1202.000	7.74387	-0.53618	5.24806	-1.12314
1203.000	7.76910	-0.56571	5.20296	-1.09747
1204.000	7.76716	-0.56177	5.25982	-1.09737
1205.000	7.75357	-0.57559	5.22061	-1.10338
1206.000	7.70116	-0.60917	5.25002	-1.07759
1207.000	7.67009	-0.59541	5.28138	-1.12704
1208.000	7.77686	-0.60906	5.25002	-1.15482
1209.000	7.72251	-0.58745	5.28138	-1.10526
1210.000	7.70116	-0.55594	5.28334	-1.11317
1211.000	7.74969	-0.55588	5.27158	-1.16072
1212.000	7.69339	-0.54215	5.29706	-1.04978
1213.000	7.78075	-0.50065	5.30686	-1.12699
1214.000	7.77492	-0.58541	5.26570	-1.17261
1215.000	7.77686	-0.56176	5.30686	-1.18243
1216.000	7.79627	-0.49669	5.31862	-1.22993
1217.000	7.71669	-0.54015	5.28726	-1.20623
1218.000	7.72057	-0.49087	5.30882	-1.24381
1219.000	7.74775	-0.55588	5.29118	-1.19039
1220.000	7.78075	-0.44744	5.28334	-1.18050
1221.000	7.71087	-0.51256	5.32058	-1.22399
1222.000	7.73804	-0.48690	5.24609	-1.25582
1223.000	7.73804	-0.55787	5.30686	-1.18640
1224.000	7.77686	-0.48883	5.28530	-1.20426
1225.000	7.76716	-0.53812	5.33234	-1.16853
1226.000	7.76134	-0.58543	5.29118	-1.11316
1227.000	7.77881	-0.49080	5.26962	-1.11716
1228.000	7.75357	-0.48689	5.25982	-1.17460
1229.000	7.78463	-0.51641	5.29902	-1.21809
1230.000	7.76328	-0.46125	5.24413	-1.15087
1231.000	7.75746	-0.45140	5.30490	-1.15274
1232.000	7.73028	-0.46917	5.30882	-1.13887
1233.000	7.74775	-0.53814	5.27942	-1.17457
1234.000	7.76910	-0.52826	5.29314	-1.12108
1235.000	7.76716	-0.47110	5.28334	-1.15872
1236.000	7.75551	-0.49083	5.26570	-1.09538
1237.000	7.76328	-0.46125	5.25982	-1.15876
1238.000	7.75163	-0.53814	5.26962	-1.12904
1239.000	7.79821	-0.53217	5.25786	-1.08945
1240.000	7.75940	-0.55784	5.31862	-1.04776
1241.000	7.72834	-0.52437	5.31078	-1.11312
1242.000	7.75746	-0.52039	5.31470	-1.08737
1243.000	7.76522	-0.54600	5.34998	-1.14869
1244.000	7.71475	-0.55395	5.29902	-1.14087
1245.000	7.75551	-0.54996	5.23433	-1.05583
1246.000	7.76716	-0.60513	5.25002	-1.08947
1247.000	7.74193	-0.60714	5.27354	-1.05576
1248.000	7.74581	-0.58742	5.25982	-1.12510
1249.000	7.74969	-0.58150	5.27942	-1.08942
1250.000	7.73999	-0.55392	5.23041	-1.03801
1251.000	7.75746	-0.59332	5.24217	-1.00630
1252.000	7.85448	-0.55180	5.23237	-1.02018
1253.000	7.77104	-0.62089	5.24609	-1.07759
1254.000	7.80791	-0.55580	5.25198	-1.06174
1255.000	7.81568	-0.54397	5.26178	-1.10529
1256.000	7.77104	-0.54403	5.21277	-1.01427
1257.000	7.81180	-0.58733	5.18531	-1.11335
1258.000	7.78851	-0.60116	5.21669	-1.00436
1259.000	7.80015	-0.54990	5.24609	-1.08948
1260.000	7.80986	-0.53609	5.26570	-1.04389
1261.000	7.80986	-0.50062	5.19708	-1.05985
1262.000	7.84672	-0.47101	5.24217	-1.05582
1263.000	7.78269	-0.53021	5.19708	-1.01232
1264.000	7.76134	-0.55586	5.28922	-1.06960
1265.000	7.80209	-0.51639	5.21473	-1.00833
1266.000	7.76328	-0.41000	5.28138	-1.00624
1267.000	7.84090	-0.43949	5.24413	-0.98848
1268.000	7.77492	-0.52234	5.22845	-1.04396
1269.000	7.83896	-0.52029	5.28530	-0.98247
1270.000	7.80015	-0.52231	5.25198	-0.98846
1271.000	7.80015	-0.40800	5.25198	-1.04392
1272.000	7.81568	-0.44937	5.27942	-1.00822
1273.000	7.75163	-0.45732	5.25982	-1.03598
1274.000	7.80403	-0.46712	5.23433	-0.98849
1275.000	7.83508	-0.47300	5.25786	-1.02410
1276.000	7.83120	-0.46118	5.20688	-1.03805
1277.000	7.83314	-0.44147	5.28726	-1.06960
1278.000	7.79239	-0.47305	5.29118	-1.07751
1279.000	7.82732	-0.45527	5.25982	-1.03202
1280.000	7.86030	-0.49464	5.31078	-1.08342
1281.000	7.83702	-0.45132	5.27550	-1.04586
1282.000	7.79239	-0.47107	5.25198	-1.01817
1283.000	7.83896	-0.48482	5.26766	-1.01220
1284.000	7.82732	-0.48286	5.29510	-1.08147
1285.000	7.79821	-0.48486	5.25786	-1.05381
1286.000	7.87582	-0.48083	5.25786	-0.98251
1287.000	7.83120	-0.50059	5.31666	-1.02400
1288.000	7.88746	-0.47491	5.25198	-1.07362
1289.000	7.83508	-0.42176	5.29706	-1.06364
1290.000	7.84284	-0.52225	5.26374	-0.99637
1291.000	7.86418	-0.52617	5.28726	-1.09336
1292.000	7.82732	-0.53213	5.32058	-1.08736
1293.000	7.88552	-0.55570	5.26178	-1.04588
1294.000	7.85254	-0.44539	5.30882	-1.02798
1295.000	7.86224	-0.50647	5.28726	-1.01217
1296.000	7.92043	-0.53398	5.30882	-0.97055
1297.000	7.89716	-0.56751	5.30686	-1.00818
1298.000	7.87776	-0.58527	5.28138	-1.05971
1299.000	7.85060	-0.42962	5.21080	-1.08756
1300.000	7.73999	-0.47113	5.15982	-1.07972
1301.000	7.63125	-0.44562	4.98524	-0.95519
1302.000	7.40779	-0.48333	4.90283	-1.01278
1303.000	7.14129	-0.41453	4.69473	-1.07255
1304.000	6.92123	-0.29229	4.46490	-1.05703
1305.000	6.54687	-0.36959	4.17003	-1.00587
1306.000	6.25987	-0.25906	4.01071	-0.98623
1307.000	5.91974	-0.09498	3.65644	-0.85564
1308.000	5.54982	-0.17821	3.33933	-0.78643
1309.000	5.30294	0.06735	3.11269	-0.78065
1310.000	4.95385	0.11297	2.75579	-0.74315
1311.000	4.58082	0.24788	2.50722	-0.74528
1312.000	4.28997	0.31940	2.23880	-0.57846
1313.000	3.95758	0.44655	1.92488	-0.56466
1314.000	3.65053	0.41097	1.69577	-0.53889
1315.000	3.31765	0.46871	1.24729	-0.62252
1316.000	2.92737	0.36160	1.10303	-0.51118
1317.000	2.64533	0.37957	0.72947	-0.51919
1318.000	2.26644	0.31011	0.44877	-0.53115
1319.000	1.96042	0.30420	0.13048	-0.44761
1320.000	1.54564	0.25654	-0.15223	-0.45358
1321.000	1.31250	0.27248	-0.53971	-0.49534
1322.000	0.95876	0.06365	-0.83424	-0.60470
1323.000	0.67413	0.27850	-1.06351	-0.45350
1324.000	0.30050	0.11141	-1.34412	-0.43954
1325.000	0.06326	0.20093	-1.59108	-0.40568
1326.000	-0.36179	0.12135	-1.95845	-0.40560
1327.000	-0.54366	0.19694	-2.12825	-0.38568
1328.000	-0.87970	0.18698	-2.51905	-0.27030
1329.000	-1.02003	0.36400	-2.75579	-0.31595
1330.000	-1.44093	0.27048	-3.07327	-0.33374
1331.000	-1.62269	0.29233	-3.40828	-0.20455
1332.000	-2.01176	0.23660	-3.71156	-0.22235
1333.000	-2.34144	0.36376	-3.98710	-0.25403
1334.000	-2.55062	0.42730	-4.23295	-0.23213
1335.000	-2.91159	0.36757	-4.59653	-0.20029
1336.000	-3.17774	0.46480	-4.86554	-0.08722
1337.000	-3.42207	0.44284	-5.18139	-0.16841
1338.000	-3.71353	0.46057	-5.38330	-0.00198
1339.000	-3.94184	0.55372	-5.55178	0.00594
1340.000	-4.06972	0.55959	-5.89822	0.03958
1341.000	-4.35091	0.53955	-6.15240	0.12659
1342.000	-4.56706	0.55526	-6.32237	0.17796
1343.000	-4.74579	0.56701	-6.60930	0.16995
1344.000	-4.91460	0.57480	-6.85303	0.20542
1345.000	-5.14021	0.55082	-6.98941	0.20141
1346.000	-5.30098	0.64576	-7.06731	0.22507
1347.000	-5.35586	0.67540	-7.30278	0.32756
1348.000	-5.44600	0.70699	-7.41557	0.29789
1349.000	-5.46559	0.79409	-7.48554	0.26826
1350.000	-5.51260	0.79798	-7.56327	0.36089
1351.000	-5.60857	0.84338	-7.56133	0.35301
1352.000	-5.66143	0.81955	-7.64873	0.38054
1353.000	-5.59094	0.88696	-7.65650	0.47911
1354.000	-5.61053	0.84536	-7.70504	0.48300
1355.000	-5.55961	0.88107	-7.65456	0.43771
1356.000	-5.56353	0.89492	-7.67203	0.53430
1357.000	-5.47343	0.88713	-7.62349	0.45549
1358.000	-5.47147	0.93267	-7.58270	0.42990
1359.000	-5.42053	0.86147	-7.62154	0.38254
1360.000	-5.42249	0.94463	-7.52635	0.41812
1361.000	-5.38330	0.87142	-7.47194	0.43592
1362.000	-5.39701	0.82388	-7.48166	0.41027
1363.000	-5.43228	0.91491	-7.55550	0.48514
1364.000	-5.39506	0.89517	-7.53413	0.40431
1365.000	-5.42053	0.90899	-7.55355	0.42993
1366.000	-5.41857	0.84167	-7.60212	0.49100
1367.000	-5.44600	0.87133	-7.61960	0.42000
1368.000	-5.46363	0.81785	-7.73416	0.48494
1369.000	-5.43620	0.87729	-7.71087	0.43174
1370.000	-5.47930	0.77823	-7.73999	0.40214
1371.000	-5.47734	0.89505	-7.76910	0.51446
1372.000	-5.51064	0.80195	-7.82150	0.43557
1373.000	-5.47343	0.83566	-7.74969	0.50069
1374.000	-5.44404	0.87134	-7.77686	0.39619
1375.000	-5.46167	0.78419	-7.82538	0.36461
1376.000	-5.47147	0.86734	-7.81374	0.46514
1377.000	-5.46755	0.87526	-7.81956	0.41192
1378.000	-5.48910	0.81385	-7.78269	0.40998
1379.000	-5.51652	0.73858	-7.75940	0.41789
1380.000	-5.51064	0.85738	-7.81762	0.38236
1381.000	-5.55178	0.85138	-7.76910	0.41197
1382.000	-5.53611	0.87318	-7.78851	0.42378
1383.000	-5.47538	0.83763	-7.78269	0.45335
1384.000	-5.51064	0.81778	-7.79627	0.43559
1385.000	-5.45775	0.89706	-7.79821	0.48486
1386.000	-5.46559	0.83171	-7.81956	0.40404
1387.000	-5.48322	0.84158	-7.75163	0.47703
1388.000	-5.44012	0.90500	-7.78463	0.40998
1389.000	-5.48518	0.86732	-7.78851	0.40801
1390.000	-5.48126	0.84752	-7.78075	0.42378
1391.000	-5.47734	0.85545	-7.81180	0.48288
1392.000	-5.40877	0.93079	-7.80986	0.48091
1393.000	-5.43032	0.90700	-7.78075	0.43364
1394.000	-5.41661	0.87534	-7.75940	0.38832
1395.000	-5.42837	0.89710	-7.84284	0.40204
1396.000	-5.39506	0.92487	-7.78851	0.43560
1397.000	-5.39506	0.96447	-7.78851	0.47108
1398.000	-5.41857	0.84365	-7.80986	0.47697
1399.000	-5.42445	0.93473	-7.75551	0.50068
1400.000	-5.35390	0.94672	-7.80597	0.43361
1401.000	-5.36958	0.94075	-7.77298	0.44350
1402.000	-5.38918	0.87340	-7.76522	0.43957
1403.000	-5.43228	0.89511	-7.76134	0.44548
1404.000	-5.36958	0.93877	-7.78463	0.44940
1405.000	-5.40289	0.88526	-7.88940	0.44141
1406.000	-5.42053	0.94661	-7.79627	0.39815
1407.000	-5.34606	0.97841	-7.79045	0.47502
1408.000	-5.38722	0.87736	-7.82344	0.45330
1409.000	-5.42641	0.89908	-7.78075	0.46912
1410.000	-5.41857	0.91493	-7.77298	0.53220
1411.000	-5.36174	0.96651	-7.78851	0.46714
1412.000	-5.35586	0.96057	-7.85642	0.53209
1413.000	-5.34214	0.95267	-7.79433	0.51443
1414.000	-5.42445	0.93077	-7.74969	0.49675
1415.000	-5.38134	0.89915	-7.79239	0.46122
1416.000	-5.42837	0.98422	-7.82344	0.48286
1417.000	-5.31470	0.94084	-7.80986	0.51047
1418.000	-5.39114	0.86547	-7.77298	0.44547
1419.000	-5.42445	0.88919	-7.78657	0.49670
1420.000	-5.39897	0.89516	-7.77298	0.48489
1421.000	-5.34606	0.90514	-7.78269	0.53810
1422.000	-5.43032	0.87334	-7.83896	0.51241
1423.000	-5.36370	0.87541	-7.76716	0.58936
1424.000	-5.41073	0.94663	-7.80209	0.52428
1425.000	-5.39506	0.92091	-7.80791	0.58142
1426.000	-5.41465	0.87930	-7.77881	0.55584
1427.000	-5.41465	0.95652	-7.80209	0.51442
1428.000	-5.37350	1.01797	-7.79433	0.52626
1429.000	-5.34998	0.95068	-7.78463	0.57751
1430.000	-5.39506	0.92685	-7.80209	0.54004
1431.000	-5.33038	0.95863	-7.78463	0.48094
1432.000	-5.36958	0.93085	-7.79433	0.55188
1433.000	-5.33234	0.91110	-7.76910	0.53614
1434.000	-5.32254	0.93884	-7.73222	0.59138
1435.000	-5.30294	1.03987	-7.71087	0.48891
1436.000	-5.31862	1.02400	-7.71475	0.52439
1437.000	-5.28726	1.06564	-7.74387	0.61108
1438.000	-5.34802	1.04771	-7.74775	0.61107
1439.000	-5.33822	1.03783	-7.80209	0.50851
1440.000	-5.33430	1.03388	-7.78463	0.51839
1441.000	-5.30098	1.01017	-7.78269	0.48882
1442.000	-5.32058	1.06360	-7.74581	0.55786
1443.000	-5.35978	1.04373	-7.78269	0.52233
1444.000	-5.30294	1.05175	-7.80791	0.56763
1445.000	-5.36566	1.02788	-7.77298	0.56965
1446.000	-5.29510	1.04582	-7.76716	0.59922
1447.000	-5.33038	1.13487	-7.75940	0.56769
1448.000	-5.36762	1.04768	-7.80209	0.53019
1449.000	-5.36174	1.04373	-7.76910	0.52629
1450.000	-5.40289	1.07138	-7.73416	0.51845
1451.000	-5.35978	1.06155	-7.77298	0.56176
1452.000	-5.34998	1.06553	-7.77104	0.48490
1453.000	-5.38134	1.03974	-7.81568	0.60112
1454.000	-5.31666	1.09331	-7.75746	0.48688
1455.000	-5.34410	1.06752	-7.78269	0.51642
1456.000	-5.35194	1.05365	-7.76522	0.46322
1457.000	-5.28726	1.07158	-7.81956	0.49272
1458.000	-5.32450	1.03191	-7.72640	0.56182
1459.000	-5.31470	1.07351	-7.71863	0.54212
1460.000	-5.27550	1.10725	-7.77298	0.51052
1461.000	-5.33430	1.05962	-7.79045	0.57948
1462.000	-5.29706	1.09335	-7.72640	0.55591
1463.000	-5.29118	1.04781	-7.74193	0.55589
1464.000	-5.31470	1.08341	-7.81180	0.52426
1465.000	-5.28922	1.07356	-7.83120	0.54789
1466.000	-5.30686	1.15075	-7.70310	0.51060
1467.000	-5.28726	1.14683	-7.77881	0.53219
1468.000	-5.28334	1.10327	-7.81180	0.53412
1469.000	-5.31666	1.11311	-7.80403	0.49865
1470.000	-5.25394	1.11323	-7.75551	0.50857
1471.000	-5.28922	1.07158	-7.78657	0.52035
1472.000	-5.33038	1.07151	-7.75551	0.57952
1473.000	-5.31862	1.15271	-7.75163	0.53420
1474.000	-5.26570	1.13697	-7.75940	0.60120
1475.000	-5.25198	1.12907	-7.74387	0.54209
1476.000	-5.27942	1.10724	-7.73804	0.54801
1477.000	-5.26178	1.15084	-7.79433	0.53808
1478.000	-5.28138	1.09733	-7.78075	0.53810
1479.000	-5.28334	1.11317	-7.75551	0.55390
1480.000	-5.28334	1.13100	-7.79239	0.58342
1481.000	-5.30294	1.14086	-7.74775	0.54406
1482.000	-5.27354	1.14884	-7.80209	0.55975
1483.000	-5.27746	1.13497	-7.82732	0.51242
1484.000	-5.27942	1.14288	-7.79821	0.50260
1485.000	-5.26766	1.15281	-7.72834	0.53422
1486.000	-5.27746	1.09338	-7.74775	0.53026
1487.000	-5.29706	1.06958	-7.77104	0.52234
1488.000	-5.25590	1.11124	-7.79045	0.55188
1489.000	-5.33822	1.13089	-7.73222	0.51451
1490.000	-5.25786	1.13104	-7.73028	0.55591
1491.000	-5.25982	1.16866	-7.71669	0.52044
1492.000	-5.29314	1.12504	-7.73222	0.56773
1493.000	-5.30882	1.10323	-7.71475	0.53424
1494.000	-5.23433	1.13703	-7.70893	0.51059
1495.000	-5.26962	1.13894	-7.79239	0.55976
1496.000	-5.25786	1.18253	-7.76910	0.51643
1497.000	-5.32058	1.08538	-7.69728	0.55792
1498.000	-5.25982	1.12510	-7.73999	0.56378
1499.000	-5.31078	1.12302	-7.71281	0.54213
1500.000	-5.25198	1.09937	-7.73028	0.58547
1501.000	-5.31862	1.15469	-7.68563	0.63679
1502.000	-5.28922	1.11316	-7.69339	0.53821
1503.000	-5.29706	1.11513	-7.67592	0.61709
1504.000	-5.22453	1.09149	-7.70698	0.60916
1505.000	-5.25982	1.12114	-7.67786	0.58357
1506.000	-5.23629	1.22019	-7.78463	0.63467
1507.000	-5.30882	1.06956	-7.68757	0.63087
1508.000	-5.31666	1.08737	-7.68563	0.60131
1509.000	-5.25590	1.14293	-7.75940	0.61106
1510.000	-5.19512	1.11135	-7.76522	0.60119
1511.000	-5.25590	1.15085	-7.75357	0.63472
1512.000	-5.25198	1.12709	-7.75357	0.59530
1513.000	-5.32450	1.08538	-7.78657	0.65832
1514.000	-5.24217	1.13305	-7.81374	0.54594
1515.000	-5.24609	1.10136	-7.84090	0.60897
1516.000	-5.23433	1.15287	-7.81180	0.59718
1517.000	-5.25590	1.14293	-7.78463	0.58934
1518.000	-5.16767	1.18666	-7.81762	0.57747
1519.000	-5.16374	1.13913	-7.76522	0.57360
1520.000	-5.19904	1.16680	-7.83508	0.52621
1521.000	-5.21080	1.13113	-7.81180	0.56762
1522.000	-5.22649	1.13902	-7.79045	0.60313
1523.000	-5.23433	1.07959	-7.80209	0.58537
1524.000	-5.19708	1.14898	-7.83508	0.59912
1525.000	-5.24021	1.10533	-7.73610	0.59138
1526.000	-5.16178	1.13320	-7.81568	0.62674
1527.000	-5.17551	1.14703	-7.79433	0.55385
1528.000	-5.18728	1.19652	-7.80015	0.55581
1529.000	-5.18924	1.17276	-7.77104	0.55782
1530.000	-5.19904	1.14303	-7.82150	0.50454
1531.000	-5.17747	1.10544	-7.83702	0.52423
1532.000	-5.18728	1.10542	-7.88746	0.54781
1533.000	-5.19904	1.06777	-7.87194	0.54981
1534.000	-5.12844	1.16693	-7.82150	0.51637
1535.000	-5.23041	1.19050	-7.83120	0.53606
1536.000	-5.17159	1.18071	-7.82732	0.48483
1537.000	-5.19316	1.12126	-7.82344	0.47892
1538.000	-5.18728	1.18068	-7.80015	0.50654
1539.000	-5.16374	1.11933	-7.83702	0.47891
1540.000	-5.21473	1.07963	-7.80015	0.49275
1541.000	-5.18924	1.10740	-7.78075	0.47109
1542.000	-5.21669	1.08557	-7.83702	0.47299
1543.000	-5.23041	1.12911	-7.83702	0.46511
1544.000	-5.16374	1.06981	-7.78657	0.52627
1545.000	-5.27942	1.08942	-7.79821	0.42179
1546.000	-5.24609	1.03798	-7.80403	0.44938
1547.000	-5.26570	1.04983	-7.85448	0.40991
1548.000	-5.20492	1.10539	-7.85060	0.37247
1549.000	-5.25002	1.14294	-7.76328	0.42380
1550.000	-5.21865	1.11923	-7.82150	0.35082
1551.000	-5.28530	1.09733	-7.82150	0.40009
1552.000	-5.25394	1.11323	-7.77881	0.42970
1553.000	-5.24806	1.06373	-7.73999	0.40805
1554.000	-5.28334	0.98643	-7.76716	0.43168
1555.000	-5.28334	0.98841	-7.81180	0.48682
1556.000	-5.25394	1.02213	-7.76910	0.40606
1557.000	-5.18924	1.00441	-7.76910	0.43956
1558.000	-5.26570	1.05974	-7.74387	0.41988
1559.000	-5.25002	1.01619	-7.82344	0.41586
1560.000	-5.32254	1.04974	-7.74581	0.40214
1561.000	-5.22845	1.03801	-7.74193	0.50858
1562.000	-5.16963	1.09951	-7.75940	0.45534
1563.000	-5.25198	0.96074	-7.76134	0.49870
1564.000	-5.23629	1.01027	-7.68951	0.48302
1565.000	-5.23825	0.97264	-7.71863	0.46524
1566.000	-5.31470	1.08143	-7.70698	0.45146
1567.000	-5.22845	0.99444	-7.72834	0.39624
1568.000	-5.17943	1.03809	-7.69922	0.46724
1569.000	-5.20688	1.09152	-7.73028	0.52042
1570.000	-5.19512	1.08956	-7.71863	0.49678
1571.000	-5.20492	1.03013	-7.70698	0.52637
1572.000	-5.19904	1.07569	-7.67980	0.40023
1573.000	-5.21669	1.04992	-7.68951	0.53033
1574.000	-5.20100	1.04004	-7.71475	0.53621
1575.000	-5.20492	0.98260	-7.68757	0.54610
1576.000	-5.17159	1.06584	-7.70504	0.46723
1577.000	-5.18728	1.04997	-7.73222	0.50859
1578.000	-5.16374	1.09160	-7.69922	0.51061
1579.000	-5.13825	1.13720	-7.72446	0.58745
1580.000	-5.16374	1.06981	-7.69922	0.57566
1581.000	-5.15982	1.09953	-7.71281	0.56578
1582.000	-5.15590	1.04606	-7.68563	0.49879
1583.000	-5.16571	1.05990	-7.69728	0.46330
1584.000	-5.20100	1.02816	-7.68757	0.55793
1585.000	-5.13237	1.06194	-7.75551	0.56376
1586.000	-5.16571	1.11140	-7.75163	0.49477
1587.000	-5.12060	1.06790	-7.70116	0.53032
1588.000	-5.16963	1.08763	-7.74581	0.53814
1589.000	-5.13433	1.05600	-7.74387	0.51055
1590.000	-5.16767	1.04009	-7.73804	0.51647
1591.000	-5.15786	1.07180	-7.74193	0.52238
1592.000	-5.07941	1.08778	-7.74581	0.53026
1593.000	-5.14806	1.06390	-7.75940	0.45337
1594.000	-5.12452	1.06988	-7.73416	0.56181
1595.000	-5.15002	1.04012	-7.77298	0.57556
1596.000	-5.10295	1.08774	-7.76910	0.44153
1597.000	-5.13825	1.13324	-7.71475	0.45736
1598.000	-5.13237	1.04411	-7.72057	0.52044
1599.000	-5.12060	1.12138	-7.76910	0.48096
1600.000	-5.14217	1.07975	-7.75163	0.43958
1601.000	-5.17943	1.07969	-7.73222	0.52634
1602.000	-5.13825	1.05599	-7.77881	0.44744
1603.000	-5.16963	1.10347	-7.81180	0.44740
1604.000	-5.14021	0.99458	-7.78851	0.36465
1605.000	-5.09510	1.10954	-7.77104	0.43759
1606.000	-5.14021	1.05401	-7.77104	0.46124
1607.000	-5.10491	1.12339	-7.72057	0.42976
1608.000	-5.08726	1.11946	-7.75163	0.46915
1609.000	-5.20296	1.11926	-7.71475	0.37851
1610.000	-5.11472	1.13526	-7.71863	0.44553
1611.000	-5.14806	1.05597	-7.73999	0.41594
1612.000	-5.09706	1.12341	-7.74193	0.52238
1613.000	-5.10883	1.09962	-7.69728	0.47709
1614.000	-5.19316	1.10739	-7.69533	0.42584
1615.000	-5.14609	1.09559	-7.74775	0.46521
1616.000	-5.12256	1.12732	-7.72057	0.39033
1617.000	-5.13629	1.10551	-7.67592	0.42586
1618.000	-5.12844	1.17287	-7.70893	0.40020
1619.000	-5.14413	1.12332	-7.72057	0.48101
1620.000	-5.13629	1.16493	-7.74387	0.44945
1621.000	-5.13433	1.13324	-7.77298	0.41985
1622.000	-5.16178	1.12923	-7.70116	0.42978
1623.000	-5.15982	1.12132	-7.76910	0.45139
1624.000	-5.20296	1.13312	-7.79045	0.44348
1625.000	-5.19512	1.11927	-7.76910	0.43562
1626.000	-5.18139	1.00640	-7.76134	0.36073
1627.000	-5.17551	1.08564	-7.71087	0.40808
1628.000	-5.17943	1.09157	-7.74581	0.37257
1629.000	-5.16963	1.11536	-7.81956	0.45922
1630.000	-5.17159	1.12129	-7.71475	0.44948
1631.000	-5.18924	1.11334	-7.74969	0.50069
1632.000	-5.21669	1.10141	-7.78463	0.50262
1633.000	-5.19316	1.11729	-7.72057	0.50269
1634.000	-5.16571	1.15299	-7.75940	0.45337
1635.000	-5.11472	1.12734	-7.67786	0.52443
1636.000	-5.15786	1.11142	-7.75357	0.55193
1637.000	-5.17943	1.14505	-7.72446	0.52240
1638.000	-5.19120	1.11334	-7.75551	0.43366
1639.000	-5.15590	1.10944	-7.74581	0.49478
1640.000	-5.16374	1.10348	-7.75551	0.51842
1641.000	-5.15786	1.07774	-7.83120	0.51636
1642.000	-5.14413	1.10946	-7.77298	0.52826
1643.000	-5.17943	1.15297	-7.73999	0.53815
1644.000	-5.21277	1.08557	-7.73416	0.56181
1645.000	-5.14609	1.13718	-7.75940	0.48097
1646.000	-5.20884	1.04201	-7.74387	0.55983
1647.000	-5.15982	1.14706	-7.79821	0.62085
1648.000	-5.20296	1.05984	-7.80986	0.57748
1649.000	-5.19904	1.15095	-7.78269	0.55189
1650.000	-5.18531	1.09552	-7.77492	0.58344
1651.000	-5.13041	1.11146	-7.77492	0.52628
1652.000	-5.11472	1.18082	-7.77104	0.57556
1653.000	-5.14217	1.07183	-7.81762	0.59718
1654.000	-5.12256	1.16496	-7.78269	0.52430
1655.000	-5.16374	1.15102	-7.84284	0.56364
1656.000	-5.14217	1.18473	-7.80986	0.55777
1657.000	-5.13629	1.14116	-7.76134	0.54995
1658.000	-5.11079	1.16498	-7.78075	0.56175
1659.000	-5.12452	1.13128	-7.79045	0.59919
1660.000	-5.09314	1.12341	-7.82732	0.48680
1661.000	-5.13237	1.14909	-7.80015	0.57355
1662.000	-5.14217	1.14511	-7.77686	0.55584
1663.000	-5.14217	1.12729	-7.80209	0.55778
1664.000	-5.06960	1.16109	-7.79045	0.54400
1665.000	-5.12452	1.15703	-7.79627	0.51837
1666.000	-5.14806	1.06192	-7.74387	0.44550
1667.000	-5.13041	1.12137	-7.78269	0.52430
1668.000	-5.14021	1.13918	-7.78851	0.57554
1669.000	-5.15394	1.16094	-7.77881	0.62679
1670.000	-5.20296	1.08757	-7.78851	0.55977
1671.000	-5.13237	1.10750	-7.82344	0.59914
1672.000	-5.14413	1.09361	-7.84866	0.48678
1673.000	-5.14021	1.10352	-7.76910	0.54600
1674.000	-5.11275	1.17884	-7.76134	0.57163
1675.000	-5.11864	1.09366	-7.81180	0.63857
1676.000	-5.12060	1.06196	-7.73804	0.51647
1677.000	-5.15982	1.10151	-7.77492	0.57950
1678.000	-5.08529	1.12343	-7.77298	0.49081
1679.000	-5.13237	1.12731	-7.79433	0.51640
1680.000	-5.14413	1.09559	-7.81374	0.48682
1681.000	-5.11864	1.13723	-7.81180	0.48879
1682.000	-5.10099	1.16698	-7.75746	0.46520
1683.000	-5.16178	1.07774	-7.76910	0.46125
1684.000	-5.15590	1.07181	-7.75357	0.47703
1685.000	-5.16571	1.08169	-7.77298	0.45139
1686.000	-5.12648	1.06591	-7.77686	0.48883
1687.000	-5.13041	1.08175	-7.75551	0.44549
1688.000	-5.10883	1.09169	-7.70893	0.48694
1689.000	-5.10883	1.09764	-7.67980	0.46331
1690.000	-5.13433	1.14117	-7.70310	0.43372
1691.000	-5.10099	1.11944	-7.71087	0.47708
1692.000	-5.13041	1.14712	-7.77104	0.42971
1693.000	-5.17747	1.09158	-7.71863	0.40413
1694.000	-5.14413	1.10352	-7.67592	0.38643
1695.000	-5.14806	1.07776	-7.69145	0.40810
1696.000	-5.10099	1.12340	-7.68174	0.38248
1697.000	-5.14021	1.05797	-7.69922	0.44555
1698.000	-5.12256	1.06790	-7.69922	0.39035
1699.000	-5.07156	1.05610	-7.64679	0.44363
1700.000	-5.12256	1.10157	-7.64485	0.44364
1701.000	-5.08529	1.05211	-7.62543	0.46534
1702.000	-5.13237	1.05996	-7.65844	0.50474
1703.000	-5.08137	1.13136	-7.62349	0.43971
1704.000	-5.06176	1.05810	-7.65262	0.47320
1705.000	-5.06568	1.01451	-7.61377	0.43578
1706.000	-5.11864	1.09960	-7.64096	0.48702
1707.000	-5.09118	1.01249	-7.64291	0.48504
1708.000	-5.15198	0.99258	-7.65456	0.45940
1709.000	-5.10687	1.03227	-7.67786	0.46529
1710.000	-5.15394	1.05398	-7.69533	0.54412
1711.000	-5.13825	1.02232	-7.61960	0.52056
1712.000	-5.17551	1.08960	-7.66038	0.52445
1713.000	-5.15786	0.98861	-7.67592	0.52838
1714.000	-5.11079	1.15111	-7.70504	0.52243
1715.000	-5.17747	1.11534	-7.69145	0.56976
1716.000	-5.15002	1.19263	-7.71863	0.60914
1717.000	-5.03625	1.19483	-7.74193	0.61699
1718.000	-5.06568	1.25221	-7.76328	0.64456
1719.000	-5.03625	1.26614	-7.72057	0.63871
1720.000	-4.98328	1.30388	-7.73804	0.61306
1721.000	-4.97151	1.31975	-7.80791	0.65434
1722.000	-4.92834	1.34361	-7.74581	0.73722
1723.000	-4.86357	1.43289	-7.73416	0.80425
1724.000	-4.84395	1.38340	-7.77104	0.79827
1725.000	-4.81057	1.34978	-7.67203	0.87731
1726.000	-4.74382	1.36973	-7.68174	0.98372
1727.000	-4.65545	1.32036	-7.66815	1.00347
1728.000	-4.52188	1.45539	-7.48554	1.16952
1729.000	-4.33715	1.48549	-7.33001	1.14626
1730.000	-4.10906	1.44031	-7.20356	1.27285
1731.000	-3.98316	1.48219	-6.98941	1.28726
1732.000	-3.80212	1.52416	-6.84329	1.39821
1733.000	-3.59343	1.62571	-6.63856	1.48174
1734.000	-3.33144	1.78490	-6.26963	1.48480
1735.000	-3.27627	1.72944	-6.04880	1.07017
1736.000	-3.23489	1.38813	-5.78279	0.66304
1737.000	-3.15605	1.09041	-5.62227	1.41136
1738.000	-3.12649	1.53915	-5.53415	2.54482
1739.000	-2.80116	2.57151	-5.33822	3.85280
1740.000	-2.20722	3.78750	-5.04802	5.29784
1741.000	-1.90908	5.09456	-4.60046	6.55686
1742.000	-1.53576	6.65598	-4.35484	7.57297
1743.000	0.00000	7.69626	-4.47865	8.88495
1744.000	-6.38291	9.75650	-4.53563	10.12080
1745.000	-6.69902	10.80446	-7.00889	11.02416
1746.000	-6.81990	11.96739	NaN	NaN
1747.000	-7.01863	12.84205	NaN	NaN
1748.000	-7.14323	13.60941	NaN	NaN
1749.000	-8.26924	14.14062	NaN	NaN
1750.000	NaN	NaN	NaN	NaN
1751.000	NaN	NaN	NaN	NaN
1752.000	NaN	NaN	NaN	NaN
1753.000	NaN	NaN	NaN	NaN
1754.000	NaN	NaN	NaN	NaN
1755.000	NaN	NaN	NaN	NaN
1756.000	NaN	NaN	NaN	NaN
1757.000	NaN	NaN	NaN	NaN
1758.000	NaN	NaN	NaN	NaN
1759.000	NaN	NaN	NaN	NaN
1760.000	NaN	NaN	NaN	NaN
1761.000	NaN	NaN	NaN	NaN
1762.000	NaN	NaN	NaN	NaN
1763.000	NaN	NaN	NaN	NaN
1764.000	NaN	NaN	NaN	NaN
1765.000	NaN	NaN	NaN	NaN
1766.000	NaN	NaN	NaN	NaN
1767.000	NaN	NaN	NaN	NaN
1768.000	NaN	NaN	NaN	NaN
1769.000	NaN	NaN	NaN	NaN
1770.000	NaN	NaN	NaN	NaN
1771.000	NaN	NaN	NaN	NaN
1772.000	NaN	NaN	NaN	NaN
1773.000	NaN	NaN	NaN	NaN
1774.000	NaN	NaN	NaN	NaN
1775.000	NaN	NaN	NaN	NaN
1776.000	NaN	NaN	NaN	NaN
1777.000	NaN	NaN	NaN	NaN
1778.000	NaN	NaN	NaN	NaN
1779.000	NaN	NaN	NaN	NaN
1780.000	NaN	NaN	NaN	NaN
1781.000	NaN	NaN	NaN	NaN
1782.000	NaN	NaN	NaN	NaN
1783.000	NaN	NaN	NaN	NaN
1784.000	NaN	NaN	NaN	NaN
1785.000	NaN	NaN	NaN	NaN
1786.000	NaN	NaN	NaN	NaN
1787.000	NaN	NaN	NaN	NaN
1788.000	NaN	NaN	NaN	NaN
1789.000	NaN	NaN	NaN	NaN
1790.000	NaN	NaN	NaN	NaN
1791.000	NaN	NaN	NaN	NaN
1792.000	NaN	NaN	NaN	NaN
1793.000	NaN	NaN	NaN	NaN
1794.000	NaN	NaN	NaN	NaN
1795.000	NaN	NaN	NaN	NaN
1796.000	NaN	NaN	NaN	NaN
1797.000	NaN	NaN	NaN	NaN
1798.000	NaN	NaN	NaN	NaN
1799.000	NaN	NaN	NaN	NaN
1800.000	NaN	NaN	NaN	NaN
1801.000	NaN	NaN	NaN	NaN
1802.000	NaN	NaN	NaN	NaN
1803.000	NaN	NaN	NaN	NaN
1804.000	NaN	NaN	NaN	NaN
1805.000	NaN	NaN	NaN	NaN
1806.000	NaN	NaN	NaN	NaN
1807.000	NaN	NaN	NaN	NaN
1808.000	NaN	NaN	NaN	NaN
1809.000	NaN	NaN	NaN	NaN
1810.000	NaN	NaN	NaN	NaN
1811.000	NaN	NaN	NaN	NaN
1812.000	NaN	NaN	NaN	NaN
1813.000	NaN	NaN	NaN	NaN
1814.000	NaN	NaN	NaN	NaN
1815.000	NaN	NaN	NaN	NaN
1816.000	NaN	NaN	NaN	NaN
1817.000	NaN	NaN	NaN	NaN
1818.000	NaN	NaN	NaN	NaN
1819.000	NaN	NaN	NaN	NaN
1820.000	NaN	NaN	NaN	NaN
1821.000	NaN	NaN	NaN	NaN
1822.000	NaN	NaN	NaN	NaN
1823.000	NaN	NaN	NaN	NaN
1824.000	NaN	NaN	NaN	NaN
1825.000	NaN	NaN	NaN	NaN
1826.000	NaN	NaN	NaN	NaN
1827.000	NaN	NaN	NaN	NaN
1828.000	NaN	NaN	NaN	NaN
1829.000	NaN	NaN	NaN	NaN
1830.000	NaN	NaN	NaN	NaN
1831.000	NaN	NaN	NaN	NaN
1832.000	NaN	NaN	NaN	NaN
1833.000	NaN	NaN	NaN	NaN
1834.000	NaN	NaN	NaN	NaN
1835.000	NaN	NaN	NaN	NaN
1836.000	-2.09271	15.31101	NaN	NaN
1837.000	1.51403	13.98660	NaN	NaN
1838.000	4.98328	11.92630	NaN	NaN
1839.000	4.84787	11.37724	-1.59898	12.38946
1840.000	4.71830	10.86393	-0.91527	11.85259
1841.000	4.60439	10.29656	-0.31039	10.90751
1842.000	4.46883	9.74454	-0.26492	10.34832
1843.000	4.33322	9.11308	-0.35586	9.77736
1844.000	4.17593	8.55890	-0.39144	9.31687
1845.000	4.02448	8.11366	-0.42900	8.80466
1846.000	3.90446	7.60062	-0.38946	8.30864
1847.000	3.74897	7.20374	-0.37760	7.82500
1848.000	3.61706	6.90364	-0.32027	7.42636
1849.000	3.50874	6.56368	-0.33411	6.94070
1850.000	3.42404	6.26618	-0.40923	6.54040
1851.000	3.42601	5.97757	-0.31829	6.15727
1852.000	3.41813	5.81256	-0.38156	5.78728
1853.000	3.41419	5.57859	-0.41121	5.36752
1854.000	3.39646	5.36813	-0.36179	5.00844
1855.000	3.43980	5.23597	-0.35388	4.68056
1856.000	3.46935	5.16491	-0.36179	4.33654
1857.000	3.49298	5.16281	-0.33411	4.05557
1858.000	3.50283	5.14109	-0.31236	3.75063
1859.000	3.50677	5.20606	-0.35783	3.70704
1860.000	3.50677	5.32420	-0.26492	3.53270
1861.000	3.53238	5.54445	-0.21352	3.38999
1862.000	3.48708	5.65880	-0.18584	3.35431
1863.000	3.48511	5.77284	-0.22538	3.23335
1864.000	3.51662	5.88270	-0.13246	3.32657
1865.000	3.48904	5.88484	-0.14432	3.59416
1866.000	3.48511	5.88683	-0.12060	3.71899
1867.000	3.44768	5.91260	-0.16409	3.88338
1868.000	3.44768	5.88902	-0.13641	3.88932
1869.000	3.46147	5.89680	-0.19177	4.00019
1870.000	3.38070	5.93462	-0.19770	3.99227
1871.000	3.41813	5.90689	-0.20758	3.96851
1872.000	3.42798	5.91469	-0.24317	4.04571
1873.000	3.45556	5.91845	-0.24119	4.03977
1874.000	3.38464	5.87369	-0.24317	4.11697
1875.000	3.41025	5.89908	-0.21352	4.14864
1876.000	3.41813	5.91868	-0.25701	4.15258
1877.000	3.41616	5.92851	-0.32422	4.16839
1878.000	3.37479	5.90322	-0.25899	4.24361
1879.000	3.35509	5.89941	-0.30050	4.30096
1880.000	3.38464	5.88548	-0.29259	4.33064
1881.000	3.39449	5.89917	-0.28666	4.33658
1882.000	3.41222	5.91478	-0.28666	4.33460
1883.000	3.39252	5.84023	-0.27480	4.38998
1884.000	3.39843	5.85985	-0.34597	4.35237
1885.000	3.39843	5.84805	-0.27876	4.45129
1886.000	3.36494	5.85612	-0.29457	4.36229
1887.000	3.33736	5.83466	-0.30643	4.38404
1888.000	3.36297	5.85416	-0.34399	4.44137
1889.000	3.34130	5.86215	-0.31039	4.45721
1890.000	3.40040	5.86376	-0.32027	4.50663
1891.000	3.32553	5.84063	-0.29259	4.49281
1892.000	3.35509	5.84045	-0.31434	4.52838
1893.000	3.36100	5.80111	-0.30050	4.49676
1894.000	3.33341	5.77768	-0.32027	4.50466
1895.000	3.35115	5.82475	-0.35783	4.46312
1896.000	3.36494	5.86398	-0.31039	4.50071
1897.000	3.35509	5.77165	-0.33213	4.47895
1898.000	3.36691	5.83449	-0.36574	4.52045
1899.000	3.34721	5.82674	-0.38353	4.52242
1900.000	3.32947	5.82881	-0.40330	4.50264
1901.000	3.35903	5.86991	-0.39144	4.52439
1902.000	3.34918	5.85621	-0.40330	4.52636
1903.000	3.34918	5.88372	-0.36574	4.54813
1904.000	3.32553	5.85438	-0.38749	4.54021
1905.000	3.32356	5.90156	-0.40330	4.55799
1906.000	3.40040	5.88342	-0.37167	4.42554
1907.000	3.37085	5.88949	-0.40528	4.51450
1908.000	3.35509	5.85814	-0.37563	4.50265
1909.000	3.37479	5.88357	-0.35388	4.52639
1910.000	3.33933	5.83465	-0.39935	4.54614
1911.000	3.37873	5.83048	-0.37563	4.55208
1912.000	3.37479	5.85409	-0.36574	4.50068
1913.000	3.36100	5.89937	-0.37563	4.46706
1914.000	3.35706	5.93280	-0.35783	4.45125
1915.000	3.36691	5.86593	-0.38749	4.49474
1916.000	3.34721	5.96430	-0.39144	4.53230
1917.000	3.36100	5.93867	-0.31829	4.45918
1918.000	3.35903	5.96815	-0.35783	4.48882
1919.000	3.35115	5.88961	-0.38353	4.49672
1920.000	3.38661	5.98174	-0.38551	4.51253
1921.000	3.38661	5.98959	-0.36969	4.54813
1922.000	3.37085	5.94647	-0.37365	4.46113
1923.000	3.38858	5.99155	-0.37760	4.46706
1924.000	3.34327	5.98200	-0.36179	4.43939
1925.000	3.38464	5.91299	-0.32620	4.47697
1926.000	3.37085	5.95433	-0.33016	4.49872
1927.000	3.36494	5.97598	-0.32225	4.44138
1928.000	3.38661	5.96013	-0.33609	4.47499
1929.000	3.37676	5.99162	-0.32620	4.53233
1930.000	3.34524	5.97413	-0.30248	4.53432
1931.000	3.38464	6.00728	-0.34399	4.48487
1932.000	3.30189	5.93510	-0.34202	4.47499
1933.000	3.36297	5.96224	-0.27876	4.52840
1934.000	3.32553	5.98211	-0.32620	4.43743
1935.000	3.37085	6.02308	-0.29457	4.46512
1936.000	3.29598	5.96264	-0.29457	4.49676
1937.000	3.38661	5.97191	-0.34004	4.47697
1938.000	3.37085	5.97594	-0.34202	4.47301
1939.000	3.33933	5.92898	-0.33411	4.48488
1940.000	3.32947	5.93886	-0.39342	4.48880
1941.000	3.35706	5.96424	-0.32818	4.47302
1942.000	3.33933	5.98006	-0.33806	4.49872
1943.000	3.34327	6.02914	-0.28864	4.47303
1944.000	3.35706	5.94459	-0.31434	4.37217
1945.000	3.29598	5.96460	-0.30050	4.50862
1946.000	3.33933	5.94470	-0.26096	4.47304
1947.000	3.32553	5.93299	-0.30643	4.52246
1948.000	3.30386	5.96456	-0.31434	4.46116
1949.000	3.30780	5.94489	-0.26294	4.45525
1950.000	3.34918	5.94660	-0.23922	4.45328
1951.000	3.32750	5.95459	-0.26492	4.45722
1952.000	3.33538	5.97812	-0.29457	4.43546
1953.000	3.37085	5.96022	-0.29655	4.47105
1954.000	3.32750	5.92119	-0.28271	4.44338
1955.000	3.37085	5.94844	-0.33213	4.49674
1956.000	3.32356	5.97819	-0.29655	4.41964
1957.000	3.28810	5.92732	-0.33411	4.45324
1958.000	3.35903	5.98191	-0.31632	4.46511
1959.000	3.28021	5.94701	-0.27085	4.46909
1960.000	3.36494	5.97205	-0.31236	4.44139
1961.000	3.32159	5.96445	-0.30248	4.43744
1962.000	3.29598	5.91155	-0.32422	4.41765
1963.000	3.33933	5.91719	-0.30841	4.42952
1964.000	3.31765	5.96644	-0.27480	4.38998
1965.000	3.30583	5.97633	-0.32422	4.47697
1966.000	3.29401	5.94497	-0.27876	4.38603
1967.000	3.28218	5.89591	-0.34004	4.42555
1968.000	3.30386	5.93312	-0.29062	4.42755
1969.000	3.31371	5.92913	-0.28666	4.40382
1970.000	3.33538	5.90935	-0.33213	4.43347
1971.000	3.28612	5.91161	-0.29457	4.44337
1972.000	3.32947	5.84650	-0.30446	4.40382
1973.000	3.27824	5.82714	-0.32027	4.40579
1974.000	3.30386	5.85648	-0.27876	4.47106
1975.000	3.26839	5.78002	-0.28666	4.48885
1976.000	3.25460	5.86266	-0.33213	4.50663
1977.000	3.29007	5.81528	-0.27876	4.44733
1978.000	3.26445	5.83312	-0.33016	4.47302
1979.000	3.24868	5.81748	-0.33213	4.41369
1980.000	3.24671	5.78407	-0.26096	4.48293
1981.000	3.28218	5.80746	-0.34202	4.51256
1982.000	3.27233	5.73084	-0.34795	4.46312
1983.000	3.26248	5.75646	-0.35388	4.46510
1984.000	3.24277	5.77623	-0.31039	4.53629
1985.000	3.31174	5.84071	-0.29457	4.49280
1986.000	3.30780	5.80338	-0.31632	4.51257
1987.000	3.27430	5.81734	-0.28271	4.43547
1988.000	3.24671	5.76245	-0.29852	4.46908
1989.000	3.26445	5.80167	-0.31434	4.55013
1990.000	3.29795	5.74053	-0.29062	4.48885
1991.000	3.26839	5.75053	-0.33806	4.48488
1992.000	3.27627	5.78391	-0.31434	4.53432
1993.000	3.26051	5.78400	-0.28271	4.55805
1994.000	3.29598	5.72874	-0.29655	4.47699
1995.000	3.24474	5.74476	-0.28469	4.53828
1996.000	3.31371	5.79155	-0.31632	4.54222
1997.000	3.25854	5.78008	-0.26887	4.51852
1998.000	3.32947	5.74231	-0.30446	4.55607
1999.000	3.29204	5.81527	-0.34795	4.54418
2000.000	3.22701	5.71143	-0.31039	4.51257
2001.000	3.25460	5.76830	-0.30643	4.53234
2002.000	3.26051	5.75844	-0.29062	4.56200
2003.000	3.22504	5.73701	-0.30643	4.60351
2004.000	3.20533	5.78431	-0.34399	4.52046
2005.000	3.24474	5.77819	-0.32422	4.49279
2006.000	3.24474	5.76442	-0.27678	4.52840
2007.000	3.16985	5.71371	-0.34993	4.45719
2008.000	3.25065	5.71720	-0.36179	4.45125
2009.000	3.18759	5.71755	-0.36969	4.50661
2010.000	3.25854	5.75255	-0.32422	4.50466
2011.000	3.24868	5.72704	-0.33806	4.53233
2012.000	3.20730	5.76660	-0.34597	4.45126
2013.000	3.21321	5.73314	-0.34202	4.45522
2014.000	3.30189	5.74837	-0.33213	4.47895
2015.000	3.23883	5.71923	-0.31434	4.42952
2016.000	3.24080	5.75855	-0.30248	4.41173
2017.000	3.25460	5.72897	-0.31039	4.39986
2018.000	3.25065	5.75653	-0.33806	4.47301
2019.000	3.23095	5.72911	-0.32225	4.48686
2020.000	3.20139	5.77647	-0.32225	4.46709
2021.000	3.19350	5.75291	-0.30841	4.46709
2022.000	3.27430	5.75049	-0.32027	4.47698
2023.000	3.20336	5.69190	-0.31236	4.41568
2024.000	3.27036	5.72495	-0.31434	4.41172
2025.000	3.23489	5.76251	-0.32620	4.47104
2026.000	3.22898	5.77041	-0.31039	4.46709
2027.000	3.26839	5.73873	-0.37167	4.45520
2028.000	3.22898	5.76845	-0.36574	4.39588
2029.000	3.26445	5.76824	-0.26689	4.44140
2030.000	3.27036	5.76231	-0.31434	4.39788
2031.000	3.21715	5.71542	-0.26887	4.46711
2032.000	3.30780	5.78766	-0.33016	4.50861
2033.000	3.26839	5.74463	-0.28271	4.43547
2034.000	3.23489	5.76055	-0.25701	4.46711
2035.000	3.30780	5.76013	-0.29062	4.35635
2036.000	3.25263	5.70342	-0.33806	4.41369
2037.000	3.25854	5.79384	-0.26492	4.35834
2038.000	3.29992	5.83685	-0.30643	4.36426
2039.000	3.25460	5.79779	-0.29259	4.37613
2040.000	3.27824	5.81142	-0.27282	4.34845
2041.000	3.26248	5.83903	-0.32422	4.35041
2042.000	3.25460	5.85087	-0.31632	4.33261
2043.000	3.27233	5.87042	-0.28666	4.33064
2044.000	3.34327	5.84052	-0.30050	4.29503
2045.000	3.31962	5.79152	-0.30446	4.34250
2046.000	3.28218	5.81533	-0.35190	4.26335
2047.000	3.28415	5.82318	-0.34004	4.33260
2048.000	3.28612	5.82317	-0.33806	4.32864
2049.000	3.28415	5.74454	-0.30841	4.36228
2050.000	3.29598	5.77986	-0.33411	4.31282
2051.000	3.28810	5.77991	-0.33016	4.27523
2052.000	3.23883	5.84703	-0.30446	4.34844
2053.000	3.28218	5.79174	-0.32422	4.33260
2054.000	3.22504	5.78223	-0.37958	4.33456
2055.000	3.25263	5.80567	-0.33213	4.32469
2056.000	3.23883	5.80575	-0.33016	4.34447
2057.000	3.19547	5.81582	-0.33213	4.36820
2058.000	3.25263	5.83712	-0.32620	4.28117
2059.000	3.28218	5.82712	-0.33609	4.34447
2060.000	3.23292	5.82544	-0.36376	4.32072
2061.000	3.19547	5.75290	-0.33806	4.34842
2062.000	3.28218	5.80353	-0.34597	4.38402
2063.000	3.18759	5.76868	-0.34597	4.26929
2064.000	3.16591	5.73930	-0.35190	4.32270
2065.000	3.21321	5.81375	-0.37167	4.36819
2066.000	3.17774	5.81592	-0.31632	4.32074
2067.000	3.18956	5.76473	-0.32818	4.37414
2068.000	3.24868	5.81355	-0.36969	4.37412
2069.000	3.25657	5.73486	-0.30446	4.35833
2070.000	3.23883	5.85096	-0.36574	4.35434
2071.000	3.24671	5.76048	-0.34004	4.32864
2072.000	3.20927	5.79412	-0.35190	4.29896
2073.000	3.19744	5.81188	-0.36376	4.25939
2074.000	3.27627	5.77997	-0.33411	4.33656
2075.000	3.20336	5.73909	-0.34202	4.30490
2076.000	3.25854	5.83905	-0.35981	4.33061
2077.000	3.22109	5.83533	-0.38353	4.29499
2078.000	3.28218	5.85071	-0.35388	4.30292
2079.000	3.27627	5.79570	-0.32422	4.33458
2080.000	3.21912	5.78620	-0.35586	4.27522
2081.000	3.22504	5.85104	-0.33411	4.28315
2082.000	3.22701	5.80581	-0.34795	4.29699
2083.000	3.26642	5.80952	-0.36574	4.24158
2084.000	3.25657	5.80171	-0.41319	4.24552
2085.000	3.27036	5.89402	-0.31236	4.29898
2086.000	3.26445	5.85671	-0.37365	4.35236
2087.000	3.24671	5.78997	-0.35783	4.31281
2088.000	3.26642	5.83311	-0.34795	4.36424
2089.000	3.28810	5.82512	-0.35783	4.25544
2090.000	3.26248	5.89013	-0.34399	4.26929
2091.000	3.20533	5.80200	-0.28271	4.32075
2092.000	3.23095	5.81759	-0.30643	4.30492
2093.000	3.17971	5.81984	-0.34993	4.25742
2094.000	3.21715	5.79604	-0.28864	4.34449
2095.000	3.27036	5.89008	-0.33411	4.36623
2096.000	3.25065	5.84303	-0.30446	4.36228
2097.000	3.30583	5.80536	-0.29852	4.32668
2098.000	3.20139	5.82169	-0.32422	4.36227
2099.000	3.26445	5.78791	-0.31829	4.25743
2100.000	3.23883	5.75266	-0.30050	4.31086
2101.000	3.24474	5.76639	-0.30841	4.36426
2102.000	3.19941	5.74502	-0.34795	4.26929
2103.000	3.19547	5.80206	-0.31039	4.34646
2104.000	3.23095	5.79596	-0.31829	4.28909
2105.000	3.23095	5.81955	-0.27876	4.34845
2106.000	3.24080	5.81163	-0.37563	4.35236
2107.000	3.21321	5.81769	-0.29655	4.35240
2108.000	3.22306	5.80190	-0.25305	4.33065
2109.000	3.26839	5.84096	-0.29655	4.32668
2110.000	3.25460	5.77813	-0.31039	4.32668
2111.000	3.23686	5.75071	-0.25899	4.32472
2112.000	3.24474	5.77819	-0.25899	4.34648
2113.000	3.24277	5.79000	-0.25899	4.32867
2114.000	3.23489	5.76841	-0.33806	4.37018
2115.000	3.21518	5.79998	-0.31829	4.34645
2116.000	3.24868	5.74867	-0.27678	4.30691
2117.000	3.24474	5.77032	-0.27876	4.32075
2118.000	3.19744	5.75093	-0.31632	4.32074
2119.000	3.18168	5.75495	-0.26096	4.32274
2120.000	3.23883	5.79985	-0.23131	4.32077
2121.000	3.24080	5.76641	-0.26492	4.37614
2122.000	3.20927	5.81378	-0.24515	4.34648
2123.000	3.24080	5.81163	-0.31039	4.30096
2124.000	3.23489	5.78807	-0.35586	4.30687
2125.000	3.20139	5.79416	-0.31829	4.34645
2126.000	3.22306	5.78224	-0.28864	4.35042
2127.000	3.23883	5.77625	-0.28073	4.34053
2128.000	3.27233	5.69151	-0.27085	4.34845
2129.000	3.28021	5.79961	-0.27480	4.33460
2130.000	3.21321	5.77443	-0.29062	4.36229
2131.000	3.22701	5.73503	-0.26887	4.26141
2132.000	3.25263	5.83712	-0.29062	4.28712
2133.000	3.26445	5.81936	-0.31829	4.30887
2134.000	3.28218	5.81926	-0.30446	4.32074
2135.000	3.22504	5.84121	-0.28864	4.31877
2136.000	3.26051	5.76630	-0.26689	4.28317
2137.000	3.22306	5.77831	-0.28864	4.25942
2138.000	3.24080	5.80967	-0.30050	4.28909
2139.000	3.21321	5.77443	-0.29457	4.24755
2140.000	3.18759	5.78637	-0.31632	4.28711
2141.000	3.24671	5.72115	-0.28469	4.28119
2142.000	3.19350	5.76668	-0.30841	4.25546
2143.000	3.18956	5.80602	-0.23329	4.34451
2144.000	3.19153	5.74309	-0.30446	4.30888
2145.000	3.19941	5.80204	-0.31434	4.28513
2146.000	3.24474	5.78998	-0.33213	4.26930
2147.000	3.24080	5.77231	-0.26096	4.38208
2148.000	3.22109	5.81764	-0.29852	4.34844
2149.000	3.20336	5.75876	-0.28666	4.40778
2150.000	3.25263	5.73882	-0.30248	4.38206
2151.000	3.22109	5.78029	-0.30643	4.39590
2152.000	3.18168	5.76478	-0.29457	4.45128
2153.000	3.22898	5.78811	-0.31434	4.43348
2154.000	3.21715	5.74688	-0.29259	4.41371
2155.000	3.20139	5.74500	-0.29062	4.43942
2156.000	3.25657	5.75256	-0.28666	4.45722
2157.000	3.22109	5.73310	-0.30841	4.44732
2158.000	3.23095	5.74091	-0.33016	4.40578
2159.000	3.22504	5.79993	-0.34004	4.44928
2160.000	3.17774	5.80609	-0.26887	4.45129
2161.000	3.20927	5.73316	-0.30643	4.48885
2162.000	3.17182	5.73927	-0.31829	4.49279
2163.000	3.21321	5.74297	-0.31236	4.49675
2164.000	3.21518	5.67806	-0.30841	4.43546
2165.000	3.21518	5.70756	-0.30643	4.47105
2166.000	3.19350	5.69392	-0.34202	4.48290
2167.000	3.21124	5.68202	-0.37958	4.45915
2168.000	3.20927	5.73906	-0.31236	4.49280
2169.000	3.23489	5.71532	-0.32422	4.41370
2170.000	3.23489	5.71335	-0.35981	4.35435
2171.000	3.21912	5.69377	-0.39342	4.37411
2172.000	3.22109	5.72720	-0.29655	4.36426
2173.000	3.18168	5.69005	-0.34202	4.30688
2174.000	3.22701	5.69373	-0.33016	4.38996
2175.000	3.13832	5.70405	-0.30841	4.37613
2176.000	3.18956	5.74507	-0.38156	4.36818
2177.000	3.24277	5.70348	-0.34202	4.40776
2178.000	3.20533	5.67615	-0.33806	4.38798
2179.000	3.20139	5.73911	-0.32620	4.32074
2180.000	3.24474	5.70740	-0.31632	4.33854
2181.000	3.20730	5.71154	-0.34993	4.35633
2182.000	3.21518	5.71543	-0.40133	4.34246
2183.000	3.27233	5.68758	-0.39539	4.26729
2184.000	3.21124	5.65251	-0.36179	4.32665
2185.000	3.20139	5.67814	-0.39144	4.34642
2186.000	3.20730	5.70367	-0.36179	4.41566
2187.000	3.16788	5.68422	-0.42109	4.26332
2188.000	3.20927	5.69776	-0.36376	4.28511
2189.000	3.21518	5.67216	-0.41516	4.31674
2190.000	3.17774	5.64483	-0.35783	4.29105
2191.000	3.21124	5.63284	-0.38353	4.25740
2192.000	3.18956	5.63886	-0.37365	4.29895
2193.000	3.21715	5.64461	-0.34795	4.31875
2194.000	3.23883	5.67006	-0.39935	4.24355
2195.000	3.20139	5.68994	-0.37167	4.30489
2196.000	3.23095	5.64650	-0.34795	4.24357
2197.000	3.19547	5.67030	-0.33411	4.30688
2198.000	3.18365	5.63693	-0.36574	4.33852
2199.000	3.17971	5.69399	-0.34399	4.36029
2200.000	3.24474	5.69560	-0.37167	4.31874
2201.000	3.21321	5.70757	-0.36179	4.36621
2202.000	3.20533	5.67418	-0.36376	4.32863
2203.000	3.21321	5.71544	-0.36969	4.30687
2204.000	3.19941	5.70372	-0.33806	4.28908
2205.000	3.17576	5.67631	-0.34597	4.27918
2206.000	3.16985	5.65077	-0.36574	4.33852
2207.000	3.14620	5.62926	-0.32818	4.34447
2208.000	3.19941	5.65848	-0.38353	4.30093
2209.000	3.19744	5.66636	-0.32620	4.35041
2210.000	3.22898	5.68192	-0.34795	4.34446
2211.000	3.18956	5.72147	-0.33213	4.29897
2212.000	3.22898	5.67799	-0.31434	4.39392
2213.000	3.24868	5.64837	-0.29852	4.31283
2214.000	3.20139	5.64273	-0.30841	4.33459
2215.000	3.22504	5.69768	-0.33609	4.31084
2216.000	3.19547	5.61129	-0.34202	4.33260
2217.000	3.19153	5.68409	-0.36179	4.27522
2218.000	3.23095	5.63273	-0.30248	4.29107
2219.000	3.22701	5.67800	-0.33609	4.29699
2220.000	3.21912	5.69574	-0.38156	4.35236
2221.000	3.16197	5.68622	-0.30841	4.30887
2222.000	3.22504	5.66227	-0.31829	4.38799
2223.000	3.25263	5.65622	-0.28073	4.30295
2224.000	3.23686	5.61500	-0.29852	4.34844
2225.000	3.22504	5.62293	-0.31829	4.32074
2226.000	3.25854	5.62865	-0.25701	4.31878
2227.000	3.22109	5.65443	-0.25899	4.30889
2228.000	3.21124	5.64071	-0.29259	4.36624
2229.000	3.20730	5.71547	-0.29852	4.30096
2230.000	3.15803	5.81013	-0.37760	4.51452
2231.000	3.12058	5.80641	-0.45470	4.53820
2232.000	2.98061	5.88777	-0.53378	4.66266
2233.000	2.86821	5.93357	-0.61285	4.70212
2234.000	2.73409	6.01484	-0.84807	4.73744
2235.000	2.57825	6.12368	-0.96666	4.94268
2236.000	2.44210	6.25004	-1.06153	5.06887
2237.000	2.23683	6.32951	-1.27496	5.07441
2238.000	2.03348	6.47564	-1.42513	5.12934
2239.000	1.96240	6.60544	-1.56540	5.27103
2240.000	1.78861	6.69241	-1.71553	5.30021
2241.000	1.66022	6.82620	-1.72145	5.44014
2242.000	1.50613	6.88160	-1.80046	5.44977
2243.000	1.45476	7.00914	-1.85971	5.57961
2244.000	1.42117	7.07976	-1.95055	5.57341
2245.000	1.27298	7.05668	-2.08482	5.57886
2246.000	1.21963	7.13909	-2.14602	5.60227
2247.000	1.04967	7.05919	-2.16971	5.62975
2248.000	1.08722	7.07086	-2.22696	5.59409
2249.000	0.98840	7.11613	-2.32368	5.68428
2250.000	0.86784	7.08895	-2.47959	5.62655
2251.000	0.78087	7.15570	-2.58219	5.74615
2252.000	0.64052	7.09323	-2.69070	5.71614
2253.000	0.61680	7.09914	-2.71831	5.76323
2254.000	0.54168	7.14820	-2.68281	5.87944
2255.000	0.53971	7.21283	-2.79327	5.98113
2256.000	0.48040	7.27163	-2.82285	6.01046
2257.000	0.41912	7.36172	-2.83271	6.15186
2258.000	0.41912	7.35976	-2.84652	6.09875
2259.000	0.35981	7.43220	-2.91159	6.02375
2260.000	0.42109	7.49864	-2.90962	6.05520
2261.000	0.40923	7.48301	-2.89976	6.09061
2262.000	0.41319	7.47909	-2.84652	6.04964
2263.000	0.47645	7.41448	-2.84060	6.01626
2264.000	0.52389	7.43399	-2.82482	6.06154
2265.000	0.49622	7.42229	-2.76960	6.03628
2266.000	0.51598	7.34596	-2.71042	5.95992
2267.000	0.54168	7.38506	-2.72029	5.98346
2268.000	0.59308	7.29890	-2.72818	5.90478
2269.000	0.60099	7.30476	-2.66703	5.96996
2270.000	0.60692	7.30084	-2.70056	5.97372
2271.000	0.54564	7.30483	-2.68873	5.96592
2272.000	0.59506	7.24213	-2.67294	5.97976
2273.000	0.57529	7.27739	-2.70845	5.95010
2274.000	0.58320	7.33218	-2.73804	6.04626
2275.000	0.56738	7.35177	-2.74790	5.97349
2276.000	0.60296	7.40064	-2.74987	6.04424
2277.000	0.57529	7.36741	-2.74790	6.03638
2278.000	0.56343	7.38699	-2.79918	5.98503
2279.000	0.55354	7.33026	-2.77749	6.09322
2280.000	0.53971	7.39289	-2.81891	5.98100
2281.000	0.49819	7.41837	-2.80510	5.99876
2282.000	0.53180	7.40660	-2.82482	5.92986
2283.000	0.50215	7.43597	-2.80707	5.92798
2284.000	0.52587	7.38704	-2.86032	5.93951
2285.000	0.53575	7.43985	-2.82088	5.92202
2286.000	0.47249	7.40275	-2.81496	5.94957
2287.000	0.52587	7.40660	-2.84652	5.95530
2288.000	0.49819	7.45749	-2.87413	5.94140
2289.000	0.54168	7.41637	-2.89187	5.89806
2290.000	0.49028	7.45946	-2.89187	5.94524
2291.000	0.45668	7.33037	-2.87413	5.82344
2292.000	0.48831	7.45359	-2.88990	5.82729
2293.000	0.49819	7.43402	-2.94906	5.86828
2294.000	0.46854	7.43992	-2.87807	5.91583
2295.000	0.52191	7.45160	-2.87610	5.79983
2296.000	0.47447	7.39297	-2.92145	5.82516
2297.000	0.49424	7.42229	-2.92145	5.80943
2298.000	0.49819	7.46336	-2.92934	5.85462
2299.000	0.54168	7.43593	-2.94709	5.88598
2300.000	0.46656	7.40863	-2.92540	5.89003
2301.000	0.53180	7.41442	-2.94314	5.86831
2302.000	0.45865	7.37342	-2.88596	5.89220
2303.000	0.48238	7.42230	-2.96680	5.86818
2304.000	0.53378	7.39681	-2.95497	5.88594
2305.000	0.48831	7.36360	-2.98455	5.82090
2306.000	0.44284	7.39691	-2.97863	5.85632
2307.000	0.52587	7.38508	-2.98849	5.86414
2308.000	0.47447	7.36166	-2.96878	5.87604
2309.000	0.45668	7.38907	-2.95892	5.89378
2310.000	0.47447	7.37927	-2.91948	5.89006
2311.000	0.51796	7.35379	-2.90962	5.89011
2312.000	0.48040	7.36166	-2.92342	5.88217
2313.000	0.48831	7.38513	-2.94314	5.91156
2314.000	0.43691	7.38127	-2.88004	5.86667
2315.000	0.54366	7.38115	-2.87610	5.93549
2316.000	0.47447	7.36166	-2.90173	5.86656
2317.000	0.47249	7.37927	-2.88004	5.87453
2318.000	0.49424	7.41838	-2.89582	5.88821
2319.000	0.46854	7.45361	-2.94117	5.83489
2320.000	0.54761	7.46526	-2.89187	5.91182
2321.000	0.48238	7.39491	-2.91554	5.88418
2322.000	0.53575	7.42420	-2.92540	5.83104
2323.000	0.50610	7.35967	-2.89779	5.84495
2324.000	0.48831	7.39100	-2.90371	5.82919
2325.000	0.49424	7.40860	-2.90173	5.85476
2326.000	0.52587	7.35769	-2.87413	5.83130
2327.000	0.51005	7.33031	-2.90568	5.85867
2328.000	0.51401	7.35575	-2.86821	5.89032
2329.000	0.51994	7.38900	-2.90173	5.84296
2330.000	0.49819	7.36946	-2.92540	5.86053
2331.000	0.55750	7.32634	-2.83863	5.84131
2332.000	0.52784	7.39682	-2.93526	5.86835
2333.000	0.48831	7.37730	-2.87413	5.91192
2334.000	0.53575	7.38312	-2.88990	5.83516
2335.000	0.51005	7.38706	-2.87413	5.92961
2336.000	0.54168	7.33810	-2.87215	5.90603
2337.000	0.50808	7.34401	-2.86032	5.86873
2338.000	0.57133	7.34002	-2.87215	5.90799
2339.000	0.52389	7.36161	-2.84060	5.95337
2340.000	0.56936	7.31654	-2.91159	5.86847
2341.000	0.54366	7.36550	-2.89779	5.94521
2342.000	0.55552	7.37331	-2.83468	5.92588
2343.000	0.48633	7.32055	-2.86821	5.89818
2344.000	0.50412	7.34010	-2.86624	5.95913
2345.000	0.60296	7.34194	-2.91159	5.87830
2346.000	0.49424	7.36555	-2.87018	5.84902
2347.000	0.46656	7.34014	-2.91751	5.95100
2348.000	0.43691	7.31669	-2.86427	5.88641
2349.000	0.46656	7.34797	-2.89976	5.93341
2350.000	0.51796	7.33813	-2.88990	5.91380
2351.000	0.51598	7.31465	-2.86624	5.90213
2352.000	0.52982	7.35182	-2.88793	5.86466
2353.000	0.49819	7.35185	-2.93723	5.86441
2354.000	0.54761	7.34788	-2.96089	5.88591
2355.000	0.48040	7.30686	-2.90765	5.94123
2356.000	0.52784	7.34203	-2.97469	5.85438
2357.000	0.54564	7.36158	-2.89187	5.91182
2358.000	0.52784	7.34790	-2.93526	5.88408
2359.000	0.47447	7.31078	-2.95497	5.86431
2360.000	0.49622	7.33229	-2.92934	5.88411
2361.000	0.47447	7.37340	-2.89976	5.86067
2362.000	0.46261	7.31275	-2.97863	5.86812
2363.000	0.49028	7.36947	-2.93723	5.82311
2364.000	0.49028	7.29119	-2.99046	5.90344
2365.000	0.46459	7.30883	-2.91357	5.91761
2366.000	0.50215	7.29314	-2.99441	5.86017
2367.000	0.51401	7.34988	-2.95695	5.87806
2368.000	0.48831	7.33816	-2.93920	5.89585
2369.000	0.51796	7.35379	-2.97666	5.98999
2370.000	0.49226	7.34207	-2.92540	5.97062
2371.000	0.49424	7.33229	-2.93328	5.93520
2372.000	0.51598	7.34988	-2.93131	5.98041
2373.000	0.48238	7.31469	-2.96089	5.97632
2374.000	0.46854	7.31470	-2.91948	5.95296
2375.000	0.46656	7.33623	-2.93526	5.96074
2376.000	0.52389	7.33813	-2.92934	5.93915
2377.000	0.44679	7.30689	-2.94314	5.91156
2378.000	0.49622	7.36164	-2.89582	5.88625
2379.000	0.49819	7.32054	-2.93328	5.92340
2380.000	0.42900	7.25015	-2.90173	5.93733
2381.000	0.48435	7.34991	-2.92737	5.97061
2382.000	0.46656	7.29122	-2.93328	5.92733
2383.000	0.48040	7.30295	-2.97666	5.92907
2384.000	0.47447	7.34209	-2.98455	5.94672
2385.000	0.52587	7.32442	-2.93131	5.95486
2386.000	0.51994	7.29703	-2.91554	5.94905
2387.000	0.46459	7.28143	-2.90173	5.94912
2388.000	0.49028	7.30881	-2.95695	5.93704
2389.000	0.50215	7.33815	-2.91751	5.91562
2390.000	0.47842	7.29708	-2.90765	5.95499
2391.000	0.44877	7.34603	-2.96878	5.94680
2392.000	0.43296	7.27559	-2.94906	5.89187
2393.000	0.47052	7.32253	-2.97272	5.90550
2394.000	0.44679	7.25013	-3.01807	5.89936
2395.000	0.47447	7.35383	-2.92737	5.96667
2396.000	0.49028	7.33816	-2.93328	5.97057
2397.000	0.45075	7.32842	-2.92342	5.92542
2398.000	0.42109	7.23841	-2.88399	5.96297
2399.000	0.45470	7.27557	-2.97666	5.92514
2400.000	0.47842	7.25401	-2.95892	5.86429
2401.000	0.47447	7.30491	-3.00229	5.93090
2402.000	0.43493	7.26972	-2.96680	5.93698
2403.000	0.44284	7.18944	-2.93920	5.94106
2404.000	0.40528	7.29910	-2.89385	5.94523
2405.000	0.51401	7.31661	-2.96089	5.93505
2406.000	0.49028	7.26966	-2.97272	5.93499
2407.000	0.48435	7.25792	-2.92145	5.90577
2408.000	0.47645	7.27946	-2.97666	5.87599
2409.000	0.47645	7.26184	-2.99244	5.89753
2410.000	0.41912	7.26582	-2.94117	5.93515
2411.000	0.46063	7.25207	-2.95300	5.94295
2412.000	0.47249	7.33035	-2.96680	5.91536
2413.000	0.47645	7.26772	-2.96483	5.89572
2414.000	0.47645	7.28533	-2.96286	5.91538
2415.000	0.48435	7.29316	-2.94511	5.92137
2416.000	0.45865	7.31667	-2.94709	5.92333
2417.000	0.46261	7.28143	-2.96089	5.91539
2418.000	0.44679	7.25796	-2.95695	5.86430
2419.000	0.41912	7.25016	-2.95695	5.89183
2420.000	0.39935	7.28932	-2.98455	5.92706
2421.000	0.45272	7.23642	-2.98849	5.94276
2422.000	0.45272	7.20705	-2.98258	5.93690
2423.000	0.39539	7.24626	-2.92342	5.93525
2424.000	0.42307	7.24819	-2.87807	5.89813
2425.000	0.44086	7.29516	-2.96680	5.88194
2426.000	0.41319	7.25212	-2.93526	5.90177
2427.000	0.41912	7.29909	-2.96089	5.87411
2428.000	0.42109	7.32845	-2.96286	5.85444
2429.000	0.43889	7.31082	-2.94117	5.87028
2430.000	0.47052	7.35188	-2.95103	5.85450
2431.000	0.43098	7.29321	-2.99046	5.84840
2432.000	0.42702	7.30887	-2.99244	5.89950
2433.000	0.44482	7.26188	-3.00032	5.89749
2434.000	0.44482	7.21489	-2.93723	5.88603
2435.000	0.46261	7.27165	-3.00032	5.94467
2436.000	0.44877	7.27753	-2.94511	5.93513
2437.000	0.50412	7.27748	-2.94906	5.83288
2438.000	0.49028	7.29511	-2.96878	5.90749
2439.000	0.49819	7.26965	-2.96878	5.84851
2440.000	0.47052	7.23444	-2.96286	5.92325
2441.000	0.49622	7.29901	-2.96089	5.89770
2442.000	0.45668	7.29710	-2.95300	5.85253
2443.000	0.47052	7.36754	-2.97075	5.90355
2444.000	0.44284	7.33234	-2.95103	5.92331
2445.000	0.51796	7.31856	-2.92737	5.85463
2446.000	0.44284	7.34995	-2.92145	5.88808
2447.000	0.48238	7.34600	-2.94906	5.82699
2448.000	0.40923	7.28540	-2.98061	5.83862
2449.000	0.44086	7.32256	-2.96680	5.87998
2450.000	0.50808	7.26768	-2.89779	5.83512
2451.000	0.44679	7.31668	-2.95103	5.85057
2452.000	0.48238	7.31077	-2.92145	5.84876
2453.000	0.47052	7.31666	-2.93526	5.82902
2454.000	0.47645	7.35383	-2.97863	5.89368
2455.000	0.44482	7.29124	-2.93526	5.89587
2456.000	0.49819	7.38120	-2.90371	5.92552
2457.000	0.48040	7.37535	-2.92145	5.87235
2458.000	0.48238	7.32056	-2.89385	5.93933
2459.000	0.49226	7.36360	-2.91554	5.87042
2460.000	0.49622	7.34403	-2.99441	5.87787
2461.000	0.50017	7.34402	-2.95695	5.91541
2462.000	0.43098	7.34018	-2.90765	5.86652
2463.000	0.47249	7.31274	-2.92145	5.89398
2464.000	0.46656	7.32449	-2.99441	5.86804
2465.000	0.46656	7.25598	-2.97469	5.91532
2466.000	0.41912	7.36954	-2.93920	5.91158
2467.000	0.43493	7.26972	-2.91948	5.89202
2468.000	0.50215	7.28726	-2.92934	5.85265
2469.000	0.46656	7.33036	-2.90962	5.89797
2470.000	0.45470	7.35581	-2.89779	5.92359
2471.000	0.45272	7.31276	-2.92342	5.91166
2472.000	0.43098	7.33040	-2.89976	5.92947
2473.000	0.44284	7.29124	-2.96483	5.88982
2474.000	0.44877	7.27558	-2.92934	5.85068
2475.000	0.49819	7.25595	-2.96878	5.91928
2476.000	0.42109	7.25798	-2.87018	5.86868
2477.000	0.46854	7.25794	-2.94117	5.89191
2478.000	0.45470	7.30297	-2.91357	5.84290
2479.000	0.43098	7.26776	-2.93131	5.89393
2480.000	0.42505	7.26385	-2.90173	5.92160
2481.000	0.45470	7.34407	-2.98061	5.93298
2482.000	0.45272	7.18747	-2.91554	5.90580
2483.000	0.51796	7.31269	-2.91159	5.81931
2484.000	0.43493	7.29712	-2.92342	5.86054
2485.000	0.43691	7.32648	-2.93328	5.94699
2486.000	0.45668	7.29906	-2.87610	5.90797
2487.000	0.43889	7.22273	-2.89779	5.90000
2488.000	0.44086	7.22860	-2.89385	5.91968
2489.000	0.38749	7.26780	-2.95300	5.89185
2490.000	0.37365	7.24432	-2.90568	5.87440
2491.000	0.39342	7.25214	-2.84849	5.91008
2492.000	0.42505	7.23645	-2.86229	5.96308
2493.000	0.41319	7.26191	-2.92342	5.91756
2494.000	0.42702	7.23253	-2.88596	5.92168
2495.000	0.42307	7.20708	-2.85441	5.93757
2496.000	0.42307	7.21883	-2.87807	5.90993
2497.000	0.41516	7.25212	-2.91159	5.95693
2498.000	0.42900	7.21490	-2.95497	5.94294
2499.000	0.44482	7.23838	-2.85835	5.93362
2500.000	0.44877	7.27558	-2.87018	5.88048
2501.000	0.43889	7.26188	-2.89187	5.92362
2502.000	0.47645	7.24423	-2.86427	5.95914
2503.000	0.44086	7.26580	-2.88399	5.88827
2504.000	0.42505	7.22274	-2.90568	5.95303
2505.000	0.41516	7.20709	-2.91751	5.83895
2506.000	0.41714	7.25211	-2.91948	5.93134
2507.000	0.44482	7.25796	-2.84454	5.94745
2508.000	0.45668	7.20509	-2.86032	5.97685
2509.000	0.50610	7.26769	-2.87215	5.91193
2510.000	0.44877	7.23446	-2.89385	5.85873
2511.000	0.45470	7.17767	-2.85835	5.89037
2512.000	0.45075	7.21684	-2.88990	5.93149
2513.000	0.43296	7.30104	-2.87807	5.89027
2514.000	0.42702	7.24427	-2.84849	5.92974
2515.000	0.45075	7.26579	-2.87610	5.94139
2516.000	0.43691	7.21881	-2.83666	5.88065
2517.000	0.44284	7.23643	-2.82285	5.92397
2518.000	0.40726	7.25995	-2.86032	5.92771
2519.000	0.42702	7.27951	-2.89779	5.86658
2520.000	0.35981	7.23650	-2.81496	5.87683
2521.000	0.44482	7.24622	-2.81891	5.98689
2522.000	0.48831	7.26770	-2.84454	5.93959
2523.000	0.44877	7.24817	-2.84652	5.93958
2524.000	0.46063	7.25207	-2.89187	5.90396
2525.000	0.46854	7.29513	-2.86821	5.95912
2526.000	0.47249	7.28338	-2.86624	5.87067
2527.000	0.48435	7.24618	-2.83271	5.91802
2528.000	0.44679	7.25013	-2.86229	5.91984
2529.000	0.41319	7.26582	-2.81891	5.90040
2530.000	0.49424	7.30293	-2.82680	5.93182
2531.000	0.39737	7.24822	-2.87807	5.89027
2532.000	0.43493	7.29908	-2.91159	5.92548
2533.000	0.41516	7.28344	-2.87413	5.93944
2534.000	0.40133	7.24038	-2.95892	5.91344
2535.000	0.42109	7.25798	-2.95892	5.97240
2536.000	0.44679	7.31277	-2.94117	5.94105
2537.000	0.53378	7.31854	-2.90371	5.96287
2538.000	0.62273	7.27146	-2.72620	5.99915
2539.000	0.69785	7.19695	-2.53484	5.95485
2540.000	0.78482	7.06559	-2.42828	5.85109
2541.000	0.94295	7.01631	-2.33552	5.65077
2542.000	1.10501	6.85328	-2.11246	5.42315
2543.000	1.29076	6.61350	-1.90908	5.29373
2544.000	1.48637	6.38915	-1.67404	5.31018
2545.000	1.58120	6.10982	-1.58713	5.01452
2546.000	1.83798	6.03626	-1.40339	4.79579
2547.000	1.99991	5.84490	-1.19591	4.57095
2548.000	2.18353	5.66710	-1.03188	4.45062
2549.000	2.34737	5.50698	-0.75122	4.42328
2550.000	2.44802	5.35294	-0.55750	4.26719
2551.000	2.67689	5.23376	-0.44482	3.98228
2552.000	2.79524	5.07360	-0.31434	3.90116
2553.000	2.96089	5.13791	-0.25701	3.75659
2554.000	3.13437	4.99912	-0.13048	3.69917
2555.000	3.23292	4.89218	0.16607	3.69124
2556.000	3.36100	4.75154	0.30248	3.75064
2557.000	3.52056	4.84145	0.34597	3.64364
2558.000	3.74503	4.83631	0.51203	3.62375
2559.000	3.85329	4.69181	0.60296	3.48101
2560.000	4.01858	4.58639	0.75122	3.41748
2561.000	4.23099	4.45306	0.94097	3.27061
2562.000	4.33125	4.36966	1.13465	3.32196
2563.000	4.47276	4.18540	1.32238	3.25829
2564.000	4.70062	4.14857	1.51601	3.17079
2565.000	4.81646	4.03940	1.65429	3.00402
2566.000	4.99309	3.92394	1.78268	2.84317
2567.000	5.06372	3.77161	1.85576	2.69626
2568.000	5.29706	3.78995	2.02953	2.61861
2569.000	5.39506	3.72032	2.25262	2.49522
2570.000	5.41857	3.57026	2.33552	2.51889
2571.000	5.50085	3.41391	2.45591	2.37582
2572.000	5.67122	3.35768	2.58811	2.27637
2573.000	5.79257	3.33132	2.64730	2.27229
2574.000	5.95494	3.35008	2.75579	2.38517
2575.000	6.05467	3.28243	2.88004	2.27383
2576.000	6.21493	3.31495	3.04567	2.29531
2577.000	6.19148	3.33875	3.11663	2.31896
2578.000	6.38486	3.18380	3.20730	2.34652
2579.000	6.43172	3.20124	3.27430	2.33447
2580.000	6.50979	3.17316	3.29598	2.36217
2581.000	6.56638	3.16886	3.33144	2.28873
2582.000	6.56638	3.18266	3.28612	2.22339
2583.000	6.53906	3.14342	3.34130	2.23715
2584.000	6.47271	3.10245	3.31765	2.27289
2585.000	6.44148	3.13023	3.19350	2.28706
2586.000	6.36729	3.10112	3.14620	2.25543
2587.000	6.38291	3.10102	3.10086	2.28131
2588.000	6.33213	3.16244	3.13832	2.33081
2589.000	6.34971	3.13671	3.08312	2.31110
2590.000	6.25791	3.15501	3.11860	2.33085
2591.000	6.29698	3.10351	3.10678	2.30113
2592.000	6.34190	3.15055	3.10283	2.29916
2593.000	6.29503	3.14887	3.15408	2.29904
2594.000	6.36729	3.13660	3.15408	2.33474
2595.000	6.42976	3.12045	3.14423	2.36054
2596.000	6.40829	3.15212	3.11269	2.31897
2597.000	6.37900	3.10302	3.17971	2.29304
2598.000	6.41219	3.09887	3.15211	2.27723
2599.000	6.40438	3.07132	3.16394	2.19589
2600.000	6.43757	3.05930	3.17379	2.24743
2601.000	6.45124	3.12229	3.16985	2.20381
2602.000	6.47076	3.09260	3.15408	2.26731
2603.000	6.50199	3.09833	3.15014	2.18402
2604.000	6.45124	3.06513	3.17576	2.21371
2605.000	6.47076	3.09852	3.20139	2.24539
2606.000	6.47271	3.08077	3.17774	2.28313
2607.000	6.45514	3.09861	3.20139	2.22357
2608.000	6.51760	3.06078	3.16788	2.12050
2609.000	6.45709	3.05918	3.14620	2.16617
2610.000	6.42586	3.04162	3.20533	2.17200
2611.000	6.45514	3.09270	3.18562	2.24741
2612.000	6.45514	3.05919	3.16197	2.24349
2613.000	6.44343	3.03561	3.14226	2.28717
2614.000	6.49613	3.06880	3.16197	2.30894
2615.000	6.51955	3.13960	3.12058	2.27928
2616.000	6.45319	3.08680	3.17576	2.24346
2617.000	6.49027	3.11811	3.18168	2.29898
2618.000	6.49808	3.05499	3.12649	2.25944
2619.000	6.47271	3.07091	3.17182	2.23356
2620.000	6.47271	3.08077	3.17182	2.27521
2621.000	6.48247	3.06691	3.15014	2.32285
2622.000	6.48052	3.00581	3.20139	2.24539
2623.000	6.43562	3.02580	3.18365	2.21171
2624.000	6.50199	3.03328	3.15803	2.25144
2625.000	6.51760	3.00362	3.20730	2.21563
2626.000	6.47271	3.02360	3.22504	2.21162
2627.000	6.48247	3.07479	3.14423	2.18204
2628.000	6.40634	3.05357	3.16197	2.17407
2629.000	6.50394	3.07269	3.12649	2.17811
2630.000	6.44148	3.08687	3.14620	2.18799
2631.000	6.46295	3.13010	3.16000	2.20185
2632.000	6.45905	3.03945	3.15408	2.21773
2633.000	6.37314	3.12868	3.15211	2.20980
2634.000	6.48052	3.08466	3.16000	2.18003
2635.000	6.47076	3.12217	3.15211	2.11657
2636.000	6.46295	3.13995	3.18759	2.14228
2637.000	6.53906	3.16904	3.15605	2.22367
2638.000	6.54102	3.14341	3.12452	2.16820
2639.000	6.47661	3.11622	3.14817	2.13641
2640.000	6.49418	3.14764	3.13437	2.22769
2641.000	6.54297	3.13157	3.21715	2.23544
2642.000	6.54492	3.09806	3.15014	2.17806
2643.000	6.50589	3.16925	3.15408	2.17607
2644.000	6.48442	3.09843	3.16985	2.19191
2645.000	6.50979	3.13966	3.19744	2.21168
2646.000	6.49613	3.10625	3.15014	2.21377
2647.000	6.53126	3.16121	3.16000	2.14432
2648.000	6.52931	3.11195	3.15014	2.18600
2649.000	6.51369	3.21452	3.20533	2.16803
2650.000	6.46100	3.13997	3.15605	2.18599
2651.000	6.52540	3.16518	3.16788	2.17406
2652.000	6.49808	3.14368	3.17182	2.16413
2653.000	6.52931	3.11984	3.17576	2.12644
2654.000	6.56248	3.15116	3.16591	2.11257
2655.000	6.57028	3.17475	3.20533	2.17596
2656.000	6.54687	3.17293	3.20139	2.18787
2657.000	6.56248	3.14919	3.16788	2.10067
2658.000	6.56443	3.15114	3.14226	2.10865
2659.000	6.57028	3.19248	3.19547	2.13632
2660.000	6.57028	3.10973	3.19153	2.08673
2661.000	6.59565	3.19429	3.13832	2.14238
2662.000	6.58394	3.14511	3.21912	2.09064
2663.000	6.55077	3.12758	3.17576	2.14231
2664.000	6.57809	3.15106	3.18956	2.07087
2665.000	6.52736	3.15926	3.17379	2.12049
2666.000	6.54882	3.15912	3.20927	2.16207
2667.000	6.56053	3.06446	3.22898	2.09856
2668.000	6.48052	3.14970	3.19744	2.08077
2669.000	6.52345	3.11396	3.18365	2.13436
2670.000	6.46490	3.10249	3.20927	2.06686
2671.000	6.54492	3.17491	3.16197	2.10465
2672.000	6.56053	3.18269	3.14029	2.13841
2673.000	6.49418	3.16144	3.17971	2.12246
2674.000	6.55272	3.19063	3.23489	2.11045
2675.000	6.53126	3.07844	3.14620	2.00152
2676.000	6.57028	3.14323	3.16000	2.09076
2677.000	6.52345	3.19475	3.19350	2.14227
2678.000	6.49613	3.21463	3.22504	2.10253
2679.000	6.56053	3.19649	3.20336	2.13828
2680.000	6.51955	3.13172	3.23883	2.12234
2681.000	6.51760	3.20858	3.17971	2.17404
2682.000	6.46295	3.11630	3.22306	2.21956
2683.000	6.46685	3.08474	3.14817	2.15030
2684.000	6.50394	3.16335	3.17379	2.24347
2685.000	6.51174	3.12389	3.20139	2.18986
2686.000	6.52931	3.08042	3.16197	2.16217
2687.000	6.49418	3.11217	3.06735	2.15046
2688.000	6.47661	3.09060	3.12649	2.07893
2689.000	6.50589	3.08648	3.12649	2.17415
2690.000	6.52931	3.11392	3.11663	2.04522
2691.000	6.51955	3.06865	3.15803	2.10664
2692.000	6.44148	3.07701	3.08904	2.18811
2693.000	6.46880	3.09262	3.15014	2.12649
2694.000	6.43172	3.05736	3.13240	2.10272
2695.000	6.50979	3.13178	3.13437	2.14239
2696.000	6.49613	3.05500	3.14029	2.10866
2697.000	6.51565	3.03714	3.17379	2.15421
2698.000	6.47076	3.05318	3.11860	2.15036
2699.000	6.49418	3.06487	3.12058	2.19003
2700.000	6.50199	3.02934	3.16000	2.18796
2701.000	6.47661	3.04329	3.15211	2.13244
2702.000	6.47466	3.05119	3.11269	2.16822
2703.000	6.48247	3.05114	3.06932	2.16633
2704.000	6.45319	3.03752	3.08706	2.18613
2705.000	6.50784	3.03522	3.10875	2.19005
2706.000	6.50979	3.08054	3.11269	2.19203
2707.000	6.47661	3.11819	3.10875	2.25749
2708.000	6.46295	3.15375	3.10875	2.19204
2709.000	6.51369	3.05489	3.09495	2.25752
2710.000	6.46490	3.14783	3.12058	2.23763
2711.000	6.53516	3.12965	3.09298	2.21190
2712.000	6.48637	3.09251	3.05947	2.23181
2713.000	6.52345	3.09819	3.10678	2.24758
2714.000	6.53711	3.07643	3.07129	2.28336
2715.000	6.51760	3.13961	3.04961	2.24968
2716.000	6.46880	3.08473	3.11860	2.21780
2717.000	6.52345	3.10608	3.13240	2.30107
2718.000	6.48442	3.11814	3.10086	2.17420
2719.000	6.48442	3.10040	3.08509	2.20200
2720.000	6.56443	3.05458	3.09889	2.20197
2721.000	6.44538	3.09670	3.06932	2.21394
2722.000	6.50589	3.12392	3.09298	2.20595
2723.000	6.47271	3.13595	3.10875	2.19402
2724.000	6.48637	3.09251	3.10481	2.22180
2725.000	6.54687	3.10199	3.12058	2.29713
2726.000	6.47856	3.16942	3.11072	2.20988
2727.000	6.47466	3.07287	3.10875	2.25353
2728.000	6.49613	3.05697	3.12058	2.21978
2729.000	6.47661	3.12607	3.13240	2.15033
2730.000	6.52540	3.07256	3.13043	2.19397
2731.000	6.55663	3.10784	3.13043	2.17811
2732.000	6.57223	3.13927	3.11860	2.26342
2733.000	6.52345	3.10608	3.09889	2.18015
2734.000	6.50784	3.14165	3.09889	2.22974
2735.000	6.48442	3.12405	3.16197	2.16416
2736.000	6.50589	3.05494	3.12058	2.22970
2737.000	6.47076	3.16947	3.12255	2.23366
2738.000	6.49027	3.12402	3.11860	2.21979
2739.000	6.48832	3.12994	3.07327	2.14252
2740.000	6.44538	3.10853	3.12452	2.19200
2741.000	6.45124	3.03556	3.14029	2.16817
2742.000	6.48442	3.08464	3.09495	2.22380
2743.000	6.47856	3.11818	3.15408	2.14037
2744.000	6.53906	3.07445	3.09889	2.19602
2745.000	6.47661	3.12410	3.10481	2.18213
2746.000	6.47076	3.10640	3.15408	2.16814
2747.000	6.52540	3.06074	3.10086	2.23371
2748.000	6.50979	3.09039	3.15803	2.17011
2749.000	6.49418	3.12399	3.11860	2.16028
2750.000	6.45709	3.04341	3.13043	2.16025
2751.000	6.46685	3.07292	3.15408	2.25938
2752.000	6.49027	3.04715	3.09101	2.16628
2753.000	6.51955	3.09230	3.14423	2.21576
2754.000	6.48247	3.06494	3.10678	2.29716
2755.000	6.50199	3.13183	3.14620	2.18799
2756.000	6.51760	3.14356	3.13240	2.23959
2757.000	6.52540	3.12577	3.13832	2.22768
2758.000	6.54297	3.10596	3.13437	2.28322
2759.000	6.51565	3.16722	3.13634	2.19595
2760.000	6.56833	3.09989	3.13634	2.18999
2761.000	6.50979	3.16528	3.13437	2.14438
2762.000	6.47856	3.12803	3.09495	2.18810
2763.000	6.53516	3.16315	3.16985	2.22364
2764.000	6.50394	3.16138	3.10481	2.22973
2765.000	6.48442	3.15953	3.11466	2.20988
2766.000	6.53516	3.16512	3.13832	2.14437
2767.000	6.50394	3.12393	3.13240	2.17413
2768.000	6.53516	3.11783	3.12452	2.19200
2769.000	6.53126	3.20653	3.16000	2.20581
2770.000	6.55077	3.16699	3.15014	2.13244
2771.000	6.52345	3.20855	3.16197	2.12052
2772.000	6.53126	3.14938	3.10086	2.16428
2773.000	6.55858	3.21817	3.13437	2.19793
2774.000	6.58004	3.23773	3.16788	2.15026
2775.000	6.54882	3.15715	3.10481	2.09087
2776.000	6.61320	3.22767	3.09692	2.13652
2777.000	6.50784	3.21850	3.13043	2.16224
2778.000	6.62296	3.26109	3.18168	2.14825
2779.000	6.56053	3.22407	3.12452	2.11861
2780.000	6.56443	3.28708	3.22306	2.14221
2781.000	6.64246	3.19990	3.20730	2.17001
2782.000	6.61125	3.22965	3.14226	2.15229
2783.000	6.55858	3.24181	3.14817	2.17410
2784.000	6.63466	3.23147	3.16197	2.09473
2785.000	6.59370	3.24946	3.13043	2.17017
2786.000	6.54882	3.19656	3.19153	2.13831
2787.000	6.58199	3.25545	3.18168	2.15420
2788.000	6.57223	3.29688	3.18562	2.15815
2789.000	6.66197	3.25295	3.14029	2.17015
2790.000	6.58199	3.23181	3.16197	2.18994
2791.000	6.62491	3.25714	3.22701	2.13228
2792.000	6.67172	3.24698	3.15803	2.15425
2793.000	6.61516	3.21781	3.17971	2.14032
2794.000	6.58394	3.23771	3.13437	2.16223
2795.000	6.61125	3.21783	3.12058	2.16622
2796.000	6.65222	3.23135	3.14620	2.14237
2797.000	6.61906	3.26703	3.17379	2.19587
2798.000	6.58589	3.24952	3.19744	2.19978
2799.000	6.63466	3.25904	3.16000	2.13440
2800.000	6.56248	3.27725	3.22306	2.13031
2801.000	6.58394	3.27711	3.21912	2.17197
2802.000	6.60345	3.31440	3.16000	2.13440
2803.000	6.64441	3.31807	3.16788	2.19191
2804.000	6.59565	3.22581	3.13634	2.09478
2805.000	6.57614	3.30080	3.19350	2.14029
2806.000	6.57614	3.17274	3.16788	2.20976
2807.000	6.57809	3.27715	3.23883	2.13424
2808.000	6.63856	3.31220	3.17774	2.13834
2809.000	6.66392	3.29627	3.20336	2.16804
2810.000	6.61516	3.35962	3.15605	2.10862
2811.000	6.56248	3.26740	3.18168	2.17800
2812.000	6.62101	3.28474	3.12846	2.23167
2813.000	6.63661	3.22948	3.18168	2.16808
2814.000	6.59370	3.29674	3.17182	2.19587
2815.000	6.61516	3.30448	3.27233	2.09648
2816.000	6.59370	3.22779	3.12058	2.20193
2817.000	6.62101	3.26504	3.13043	2.11264
2818.000	6.59565	3.29476	3.20139	2.16011
2819.000	6.55663	3.24577	3.16197	2.16416
2820.000	6.61711	3.26704	3.21912	2.15412
2821.000	6.55858	3.18074	3.18168	2.19982
2822.000	6.59370	3.23370	3.16591	2.22762
2823.000	6.62881	3.21181	3.17182	2.24744
2824.000	6.64051	3.25113	3.19350	2.17401
2825.000	6.59565	3.20020	3.16985	2.18001
2826.000	6.59955	3.21791	3.18168	2.18990
2827.000	6.61516	3.22569	3.13043	2.16025
2828.000	6.57809	3.23775	3.21124	2.17397
2829.000	6.60930	3.20208	3.16394	2.15622
2830.000	6.59760	3.27111	3.16000	2.23556
2831.000	6.60150	3.13318	3.16788	2.22365
2832.000	6.67367	3.25288	3.15014	2.21972
2833.000	6.61711	3.22370	3.17774	2.26924
2834.000	6.62881	3.24923	3.20730	2.23745
2835.000	6.58004	3.27122	3.14029	2.19990
2836.000	6.58394	3.22589	3.19350	2.18591
2837.000	6.62881	3.26499	3.20533	2.16406
2838.000	6.60150	3.19228	3.17182	2.21372
2839.000	6.57419	3.25156	3.22306	2.17394
2840.000	6.64832	3.21759	3.16591	2.25340
2841.000	6.57809	3.18455	3.16788	2.15621
2842.000	6.53321	3.25577	3.15408	2.18004
2843.000	6.58589	3.19829	3.16000	2.18399
2844.000	6.56833	3.23978	3.15605	2.18004
2845.000	6.60540	3.22378	3.11466	2.21781
2846.000	6.61516	3.23356	3.13437	2.24355
2847.000	6.66002	3.26479	3.19744	2.17201
2848.000	6.62296	3.29852	3.17182	2.26331
2849.000	6.64051	3.25310	3.18365	2.19188
2850.000	6.63271	3.27875	3.13043	2.20588
2851.000	6.56248	3.20041	3.16394	2.25539
2852.000	6.60735	3.28483	3.14620	2.24749
2853.000	6.61320	3.27100	3.15803	2.23954
2854.000	6.56248	3.24770	3.15803	2.18400
2855.000	6.58589	3.24755	3.08706	2.27737
2856.000	6.59760	3.20807	3.18956	2.27120
2857.000	6.59955	3.17062	3.18759	2.28905
2858.000	6.59565	3.25339	3.21321	2.25528
2859.000	6.63271	3.27285	3.15014	2.19592
2860.000	6.60930	3.21587	3.15014	2.21773
2861.000	6.55077	3.21034	3.15803	2.24549
2862.000	6.58979	3.24555	3.15408	2.26334
2863.000	6.58784	3.19237	3.16000	2.26135
2864.000	6.58394	3.22786	3.16000	2.28911
2865.000	6.53321	3.27744	3.12058	2.33482
2866.000	6.59174	3.24357	3.11663	2.30309
2867.000	6.60540	3.22969	3.13832	2.32288
2868.000	6.55858	3.30682	3.10481	2.27932
2869.000	6.52540	3.24597	3.08509	2.33093
2870.000	6.49223	3.36833	3.13437	2.34668
2871.000	6.50979	3.32093	3.15211	2.26930
2872.000	6.56248	3.22406	3.19744	2.28705
2873.000	6.58199	3.24363	3.30386	2.26301
2874.000	6.74972	3.21298	3.39449	2.30642
2875.000	6.78871	3.19697	3.43980	2.24287
2876.000	6.92318	3.13897	3.61903	2.13934
2877.000	7.04589	2.97868	3.76865	2.08149
2878.000	7.12182	2.85217	3.84345	2.19429
2879.000	7.30667	2.71517	4.03825	1.98965
2880.000	7.52441	2.69416	4.25655	1.85633
2881.000	7.67592	2.68534	4.40987	1.92926
2882.000	7.80597	2.50945	4.54742	1.90513
2883.000	7.89328	2.53449	4.72615	1.83335
2884.000	8.12979	2.55464	4.84395	1.92610
2885.000	8.23826	2.57949	5.04999	1.90967
2886.000	8.35828	2.62978	5.15786	1.86580
2887.000	8.47049	2.57403	5.22649	1.89924
2888.000	8.66187	2.70031	5.39310	1.89279
2889.000	8.69471	2.68634	5.49106	2.02303
2890.000	8.82217	2.67365	5.57332	1.97924
2891.000	8.90130	2.70641	5.68101	1.99074
2892.000	9.06718	2.74046	5.76517	2.02999
2893.000	9.22905	2.79015	5.90605	1.99390
2894.000	9.39462	2.72617	6.02339	1.97174
2895.000	9.44080	2.77084	6.11331	1.94770
2896.000	9.44272	2.74929	6.17781	1.94549
2897.000	9.49466	2.80955	6.31456	1.99633
2898.000	9.63691	2.65770	6.36338	1.95270
2899.000	9.61962	2.65196	6.42586	1.93074
2900.000	9.69071	2.57900	6.40438	1.83602
2901.000	9.74065	2.56492	6.45709	1.89705
2902.000	9.78481	2.61936	6.47661	1.86341
2903.000	9.81553	2.52912	6.44928	1.78649
2904.000	9.84624	2.50932	6.52345	1.85731
2905.000	9.84816	2.57582	6.57223	1.84331
2906.000	9.83280	2.54464	6.58199	1.85907
2907.000	9.89037	2.57941	6.59370	1.96168
2908.000	9.83472	2.66395	6.61906	1.88854
2909.000	9.79249	2.59582	6.58394	1.98738
2910.000	9.80785	2.65830	6.57419	1.97952
2911.000	9.75793	2.72717	6.57809	1.90054
2912.000	9.72336	2.68832	6.61320	1.89843
2913.000	9.77521	2.67030	6.57809	1.91239
2914.000	9.71376	2.72753	6.50394	1.87515
2915.000	9.73873	2.63537	6.52150	1.93235
2916.000	9.69263	2.65530	6.48637	1.90484
2917.000	9.70800	2.61605	6.52150	1.91260
2918.000	9.72144	2.66486	6.54882	1.90855
2919.000	9.77329	2.55879	6.49613	1.94034
2920.000	9.79825	2.66033	6.53516	1.92835
2921.000	9.80785	2.63091	6.50199	1.92058
2922.000	9.82896	2.59945	6.60345	1.97546
2923.000	9.85391	2.61294	6.55858	1.95194
2924.000	9.88078	2.58926	6.55077	1.98554
2925.000	9.84816	2.57582	6.60930	1.95964
2926.000	9.91531	2.56552	6.57223	1.92623
2927.000	9.88846	2.57551	6.60150	1.92217
2928.000	9.87694	2.61081	6.64441	1.93384
2929.000	9.89229	2.63611	6.58979	1.88273
2930.000	9.87694	2.57951	6.58979	1.90642
2931.000	9.87310	2.65582	6.62491	1.88654
2932.000	9.91340	2.56358	6.65612	1.88840
2933.000	9.96902	2.61985	6.59174	1.95379
2934.000	9.90764	2.68292	6.64637	1.86080
2935.000	9.94792	2.64348	6.64637	1.87067
2936.000	9.87886	2.57558	6.64832	1.86671
2937.000	9.90764	2.60469	6.62296	1.93590
2938.000	9.91915	2.66131	6.68147	1.90804
2939.000	9.92299	2.60262	6.64051	1.87069
2940.000	9.89805	2.65953	6.59955	1.79385
2941.000	9.87886	2.62253	6.59565	1.85507
2942.000	9.88462	2.66746	6.58199	1.86302
2943.000	9.92299	2.62804	6.58394	1.85906
2944.000	9.86351	2.58548	6.58004	1.81367
2945.000	9.91148	2.58315	6.58784	1.90050
2946.000	9.99203	2.66268	6.53126	1.88295
2947.000	9.87502	2.59908	6.60540	1.87675
2948.000	9.88846	2.55595	6.60735	1.93004
2949.000	9.89997	2.63409	6.57223	1.92031
2950.000	9.97286	2.58853	6.56053	1.84730
2951.000	9.87886	2.58927	6.58784	1.93801
2952.000	9.95943	2.58082	6.60540	1.88267
2953.000	9.88846	2.65374	6.55467	1.94604
2954.000	9.88846	2.61658	6.60735	1.84713
2955.000	9.93258	2.58494	6.56053	1.90061
2956.000	9.86159	2.62071	6.57223	1.91043
2957.000	9.86351	2.56788	6.58004	1.90843
2958.000	9.84240	2.58174	6.52150	1.94617
2959.000	9.89037	2.63417	6.52931	1.91455
2960.000	9.85775	2.59922	6.54492	1.89869
2961.000	9.84432	2.61693	6.51760	1.95013
2962.000	9.84432	2.61889	6.57809	1.94792
2963.000	9.86351	2.58548	6.51760	1.94223
2964.000	9.85967	2.61094	6.58004	1.93015
2965.000	9.87310	2.55607	6.53711	1.93229
2966.000	9.89997	2.59498	6.54102	1.91055
2967.000	9.87310	2.57954	6.53711	1.95203
2968.000	9.84240	2.51522	6.52345	1.87508
2969.000	9.87119	2.57173	6.51760	1.88695
2970.000	9.86735	2.57959	6.56443	1.93415
2971.000	9.80593	2.59180	6.51955	1.91656
2972.000	9.83472	2.57593	6.58589	1.87880
2973.000	9.86543	2.61872	6.53516	1.83950
2974.000	9.85008	2.53864	6.52736	1.92245
2975.000	9.88078	2.55601	6.48247	1.92657
2976.000	9.83856	2.58763	6.54102	1.94017
2977.000	9.85583	2.66378	6.56248	1.92034
2978.000	9.90764	2.62034	6.56443	1.90849
2979.000	9.80785	2.59374	6.52931	1.94811
2980.000	9.87502	2.57953	6.50979	1.96595
2981.000	9.88846	2.59507	6.50784	1.96596
2982.000	9.92491	2.56153	6.54297	1.93029
2983.000	9.86735	2.59523	6.51369	1.90474
2984.000	9.85775	2.61291	6.52736	1.90271
2985.000	9.83280	2.59746	6.53711	1.93229
2986.000	9.84048	2.54458	6.52150	1.97775
2987.000	9.85967	2.53857	6.54882	1.92040
2988.000	9.82896	2.55837	6.54882	1.88288
2989.000	9.83088	2.67181	6.53126	1.92244
2990.000	9.85200	2.54449	6.57223	1.94399
2991.000	9.87119	2.61085	6.55272	1.90656
2992.000	9.92682	2.57325	6.53126	1.93823
2993.000	9.75985	2.64890	6.50784	1.93832
2994.000	9.87502	2.62451	6.55663	1.93418
2995.000	9.86159	2.62462	6.53516	1.95401
2996.000	9.84624	2.54845	6.53516	1.98560
2997.000	9.80785	2.55657	6.51369	1.89486
2998.000	9.91148	2.59684	6.57419	1.93806
2999.000	9.85200	2.59144	6.55272	1.97763
3000.000	9.86927	2.56783	6.49223	1.96207
3001.000	9.81169	2.61719	6.52931	1.91652
3002.000	9.88078	2.60491	6.52931	1.91060
3003.000	9.86351	2.56005	6.54687	1.90066
3004.000	9.75217	2.58439	6.52540	1.91061
3005.000	9.86159	2.60506	6.55077	1.94408
3006.000	9.83664	2.53874	6.54102	1.84935
3007.000	9.80593	2.61332	6.51760	1.95013
3008.000	9.85008	2.59146	6.57614	1.86304
3009.000	9.85775	2.66181	6.56248	1.92034
3010.000	9.83280	2.53877	6.54102	1.96583
3011.000	9.82321	2.51537	6.51565	1.90078
3012.000	9.81169	2.57611	6.53126	1.93231
3013.000	9.86351	2.59331	6.54492	1.98358
3014.000	9.86351	2.58548	6.54102	1.89673
3015.000	9.89229	2.48941	6.59370	1.94588
3016.000	9.89997	2.61649	6.55858	1.93418
3017.000	9.83856	2.62480	6.55858	1.93418
3018.000	9.89997	2.62040	6.56833	1.95388
3019.000	9.83856	2.61306	6.49418	1.97984
3020.000	9.86351	2.58940	6.52931	1.95008
3021.000	9.90764	2.56753	6.50979	1.94029
3022.000	9.85391	2.50340	6.55467	1.88681
3023.000	9.87694	2.59125	6.59174	1.94392
3024.000	9.82896	2.61901	6.58784	1.91432
3025.000	9.85391	2.65989	6.50784	1.94030
3026.000	9.82705	2.60337	6.57419	1.89069
3027.000	9.85775	2.63638	6.51760	1.93039
3028.000	9.86927	2.64216	6.57419	1.94794
3029.000	9.83280	2.64832	6.58784	1.90445
3030.000	9.86351	2.61482	6.57223	1.90846
3031.000	9.90764	2.65945	6.57614	1.87488
3032.000	9.86543	2.63046	6.61320	1.93594
3033.000	9.92299	2.54395	6.60345	1.83332
3034.000	9.81361	2.61131	6.58199	1.86697
3035.000	9.85200	2.60905	6.57614	1.85712
3036.000	9.85775	2.65399	6.53126	1.86321
3037.000	9.86735	2.62653	6.58589	1.88472
3038.000	9.84624	2.47802	6.53906	1.85133
3039.000	9.84432	2.58563	6.56638	1.85320
3040.000	9.86927	2.56197	6.58394	1.87485
3041.000	9.85391	2.53665	6.56443	1.83347
3042.000	9.84432	2.64627	6.57028	1.84924
3043.000	9.93258	2.60254	6.59370	1.83139
3044.000	9.85008	2.58754	6.59174	1.87483
3045.000	9.82129	2.50169	6.59174	1.78006
3046.000	9.89037	2.64395	6.60345	1.80568
3047.000	9.82513	2.50557	6.60540	1.81950
3048.000	9.87694	2.49540	6.61906	1.79181
3049.000	9.83664	2.49962	6.61711	1.79774
3050.000	9.78097	2.56852	6.58589	1.72677
3051.000	9.86927	2.46611	6.58394	1.81563
3052.000	9.88078	2.44059	6.59565	1.82348
3053.000	9.82321	2.51341	6.56638	1.83543
3054.000	9.87502	2.43868	6.59370	1.83928
3055.000	9.85583	2.48578	6.58784	1.87484
3056.000	9.89229	2.47768	6.58784	1.82943
3057.000	9.82129	2.44886	6.61516	1.86092
3058.000	9.83280	2.43508	6.61516	1.81354
3059.000	9.87310	2.47978	6.56638	1.83938
3060.000	9.81169	2.43328	6.58784	1.81759
3061.000	9.84048	2.42915	6.61125	1.84514
3062.000	9.81169	2.43719	6.60540	1.74645
3063.000	9.81937	2.44496	6.61711	1.77207
3064.000	9.85391	2.44470	6.55077	1.78810
3065.000	9.85967	2.47988	6.55858	1.80387
3066.000	9.82129	2.54473	6.57419	1.78605
3067.000	9.82896	2.45272	6.59760	1.80768
3068.000	9.87119	2.56586	6.62686	1.76414
3069.000	9.78097	2.44133	6.55467	1.83943
3070.000	9.82705	2.53099	6.59955	1.76621
3071.000	9.81553	2.43716	6.62881	1.79967
3072.000	9.81745	2.40192	6.64246	1.84107
3073.000	9.82321	2.46058	6.56638	1.83741
3074.000	9.90764	2.46387	6.61906	1.78391
3075.000	9.78673	2.44324	6.62881	1.83323
3076.000	9.82705	2.52121	6.62296	1.79574
3077.000	9.80977	2.49395	6.66002	1.82127
3078.000	9.84816	2.48779	6.61125	1.79776
3079.000	9.84048	2.42328	6.61906	1.85893
3080.000	9.85200	2.41341	6.63076	1.83914
3081.000	9.78289	2.50785	6.62686	1.82534
3082.000	9.81169	2.45871	6.61320	1.83329
3083.000	9.87502	2.52867	6.64441	1.86673
3084.000	9.79057	2.50192	6.63076	1.79966
3085.000	9.77329	2.55488	6.57223	1.84923
3086.000	9.81169	2.50763	6.56053	1.84730
3087.000	9.83856	2.50351	6.56443	1.83149
3088.000	9.86543	2.48375	6.55077	1.83549
3089.000	9.82513	2.51927	6.57809	1.77813
3090.000	9.80593	2.57224	6.63856	1.74041
3091.000	9.83088	2.50357	6.56638	1.84531
3092.000	9.83280	2.52508	6.65027	1.83710
3093.000	9.80785	2.48809	6.56638	1.79595
3094.000	9.82896	2.52706	6.63271	1.83519
3095.000	9.83856	2.61893	6.58199	1.81169
3096.000	9.83664	2.55439	6.59760	1.80571
3097.000	9.87502	2.56583	6.60735	1.82146
3098.000	9.83088	2.53292	6.56638	1.85123
3099.000	9.84240	2.51327	6.60540	1.82542
3100.000	9.78481	2.60566	6.54297	1.83157
3101.000	9.87119	2.61672	6.61906	1.85301
3102.000	9.79249	2.56060	6.60345	1.89255
3103.000	9.82129	2.60733	6.61125	1.83329
3104.000	9.82705	2.57794	6.58199	1.84525
3105.000	9.88654	2.64984	6.57028	1.82752
3106.000	9.83280	2.60724	6.56053	1.83348
3107.000	9.80977	2.58590	6.59760	1.82150
3108.000	9.82896	2.55445	6.55663	1.88088
3109.000	9.85967	2.54835	6.58004	1.88671
3110.000	9.82896	2.52902	6.61516	1.79972
3111.000	9.82321	2.50950	6.61516	1.78392
3112.000	9.84816	2.64428	6.57614	1.86896
3113.000	9.81361	2.56435	6.58004	1.82156
3114.000	9.81553	2.54869	6.57223	1.81962
3115.000	9.83280	2.60724	6.61906	1.85498
3116.000	9.76945	2.58230	6.60150	1.85110
3117.000	9.83088	2.65029	6.61906	1.86880
3118.000	9.84816	2.56213	6.63076	1.85296
3119.000	9.80977	2.57417	6.55272	1.84536
3120.000	9.83280	2.61311	6.59370	1.78203
3121.000	9.88078	2.57557	6.60540	1.76619
3122.000	9.73873	2.60994	6.58979	1.79586
3123.000	9.78673	2.54891	6.61516	1.81156
3124.000	9.86543	2.55026	6.56443	1.82162
3125.000	9.83856	2.52308	6.59565	1.83928
3126.000	9.90189	2.58518	6.62686	1.83521
3127.000	9.81937	2.46453	6.66197	1.90219
3128.000	9.82129	2.52321	6.62686	1.86877
3129.000	9.80593	2.51550	6.60150	1.87479
3130.000	9.80209	2.47640	6.58004	1.84723
3131.000	9.80401	2.51943	6.63856	1.80950
3132.000	9.87502	2.54236	6.59760	1.90047
3133.000	9.84624	2.52889	6.62296	1.86089
3134.000	9.87310	2.62453	6.57223	1.91043
3135.000	9.83088	2.65225	6.64637	1.90028
3136.000	9.87694	2.62254	6.59565	1.93601
3137.000	9.82513	2.66012	6.62881	1.87271
3138.000	9.85391	2.59143	6.54492	1.86316
3139.000	9.84816	2.51127	6.56443	1.76634
3140.000	9.76945	2.39053	6.49808	1.62438
3141.000	9.79057	2.36885	6.41805	1.45869
3142.000	9.72336	2.21075	6.47661	1.20563
3143.000	9.64652	1.95075	6.37705	1.10705
3144.000	9.57733	1.64542	6.36533	0.87187
3145.000	9.53696	1.31231	6.35752	0.67024
3146.000	9.49658	1.04768	6.39267	0.21550
3147.000	9.38500	0.81059	6.33995	0.17795
3148.000	9.27335	0.60079	6.33995	-0.05734
3149.000	9.21171	0.27296	6.23251	-0.31049
3150.000	9.13464	-0.11589	6.19735	-0.46280
3151.000	9.04983	-0.22790	6.16803	-0.61511
3152.000	9.04019	-0.29471	6.16022	-0.67643
3153.000	8.97655	-0.33799	6.02339	-0.56186
3154.000	8.93989	-0.45593	6.05271	-0.59546
3155.000	8.93411	-0.45594	5.99406	-0.64301
3156.000	8.88973	-0.52675	5.94712	-0.68856
3157.000	8.86271	-0.51303	5.96081	-0.71822
3158.000	8.91481	-0.62890	5.92952	-0.76575
3159.000	8.87815	-0.57590	5.90213	-0.78755
3160.000	8.94182	-0.56401	5.86301	-0.84894
3161.000	8.89166	-0.59946	5.81605	-0.72633
3162.000	8.85885	-0.51304	5.72603	-0.70269
3163.000	8.83761	-0.47375	5.69275	-0.67304
3164.000	8.81445	-0.49737	5.67905	-0.70275
3165.000	8.75459	-0.48959	5.68492	-0.73243
3166.000	8.72562	-0.57614	5.67318	-0.75620
3167.000	8.71983	-0.54665	5.68101	-0.75817
3168.000	8.76038	-0.50334	5.65947	-0.77799
3169.000	8.74493	-0.56431	5.62032	-0.71668
3170.000	8.72176	-0.58008	5.64577	-0.72258
3171.000	8.79128	-0.54655	5.70841	-0.70865
3172.000	8.78163	-0.57998	5.76909	-0.69274
3173.000	8.80093	-0.59568	5.73582	-0.74028
3174.000	8.80286	-0.52687	5.77300	-0.68086
3175.000	8.82024	-0.52095	5.77300	-0.75409
3176.000	8.82796	-0.53667	5.80431	-0.75998
3177.000	8.81059	-0.49344	5.75147	-0.81151
3178.000	8.83375	-0.60546	5.73190	-0.79175
3179.000	8.86078	-0.54055	5.73582	-0.75018
3180.000	8.74300	-0.57415	5.69667	-0.75221
3181.000	8.81638	-0.56814	5.70254	-0.87293
3182.000	8.76618	-0.57411	5.73190	-0.87289
3183.000	8.76232	-0.58984	5.73386	-0.93819
3184.000	8.76232	-0.60950	5.75539	-0.87879
3185.000	8.76038	-0.61737	5.68492	-0.89671
3186.000	8.73528	-0.69016	5.78474	-0.96383
3187.000	8.74493	-0.64296	5.68492	-0.92640
3188.000	8.80480	-0.61140	5.73582	-0.94017
3189.000	8.79900	-0.67235	5.77887	-0.93614
3190.000	8.81831	-0.57796	5.69471	-0.95409
3191.000	8.77004	-0.63505	5.75930	-0.94804
3192.000	8.71596	-0.69806	5.77887	-0.93416
3193.000	8.76811	-0.58590	5.71624	-0.97384
3194.000	8.80093	-0.58389	5.75539	-0.92430
3195.000	8.73528	-0.65477	5.75343	-0.93420
3196.000	8.77390	-0.67436	5.72212	-0.95602
3197.000	8.77197	-0.68223	5.69471	-0.95607
3198.000	8.75073	-0.66850	5.71429	-0.93624
3199.000	8.74107	-0.65673	5.71820	-0.95207
3200.000	8.71017	-0.67841	5.72016	-0.94811
3201.000	8.77004	-0.59966	5.78866	-0.95393
3202.000	8.72176	-0.61940	5.71429	-0.98572
3203.000	8.78742	-0.64288	5.75930	-0.97179
3204.000	8.78549	-0.71366	5.69667	-0.96200
3205.000	8.77390	-0.66257	5.69080	-0.94618
3206.000	8.71596	-0.63514	5.74169	-0.90454
3207.000	8.75459	-0.61542	5.71037	-0.91052
3208.000	8.71789	-0.64497	5.73190	-0.91840
3209.000	8.78356	-0.61144	5.72016	-0.92832
3210.000	8.71983	-0.61154	5.73777	-0.91840
3211.000	8.74880	-0.62526	5.72407	-0.89665
3212.000	8.70824	-0.61746	5.72603	-0.87883
3213.000	8.68312	-0.57227	5.70841	-0.90459
3214.000	8.75459	-0.54464	5.76713	-0.83523
3215.000	8.77583	-0.55444	5.70450	-0.86105
3216.000	8.73335	-0.57613	5.75539	-0.85702
3217.000	8.77583	-0.57213	5.66143	-0.88883
3218.000	8.76038	-0.58198	5.70058	-0.87887
3219.000	8.76811	-0.51120	5.72799	-0.82540
3220.000	8.79321	-0.58390	5.70646	-0.94219
3221.000	8.75459	-0.55250	5.78670	-0.94008
3222.000	8.77583	-0.53084	5.75930	-0.90253
3223.000	8.77390	-0.55247	5.78474	-0.88468
3224.000	8.79514	-0.57407	5.77105	-0.88668
3225.000	8.73528	-0.58989	5.78866	-0.92425
3226.000	8.78163	-0.56229	5.74365	-0.83725
3227.000	8.74493	-0.49550	5.75930	-0.86295
3228.000	8.74300	-0.56825	5.74365	-0.86891
3229.000	8.74493	-0.60560	5.78279	-0.86489
3230.000	8.80286	-0.61534	5.79061	-0.91237
3231.000	8.74880	-0.66654	5.76713	-0.88866
3232.000	8.77969	-0.59571	5.76713	-0.89460
3233.000	8.74880	-0.55841	5.78279	-0.88864
3234.000	8.77390	-0.56820	5.75343	-0.87879
3235.000	8.76232	-0.54463	5.80627	-0.90245
3236.000	8.78163	-0.60161	5.72799	-0.85904
3237.000	8.81059	-0.58190	5.71233	-0.83927
3238.000	8.79900	-0.58782	5.73973	-0.86298
3239.000	8.80093	-0.60944	5.76126	-0.92825
3240.000	8.74687	-0.64688	5.75735	-0.98762
3241.000	8.77004	-0.56821	5.75735	-0.95398
3242.000	8.77390	-0.56034	5.73386	-0.99162
3243.000	8.78935	-0.58390	5.74365	-0.91047
3244.000	8.74687	-0.58397	5.72407	-0.89467
3245.000	8.76425	-0.54462	5.78866	-0.95987
3246.000	8.74107	-0.57612	5.74952	-0.87484
3247.000	8.77197	-0.58197	5.75735	-0.92034
3248.000	8.71017	-0.53290	5.72603	-0.88675
3249.000	8.69278	-0.48770	5.72407	-0.91050
3250.000	8.77197	-0.48956	5.76322	-0.87878
3251.000	8.70824	-0.49161	5.73582	-0.88080
3252.000	8.77776	-0.48366	5.75147	-0.92035
3253.000	8.72948	-0.56434	5.71820	-0.96394
3254.000	8.68892	-0.57226	5.72995	-0.93424
3255.000	8.72562	-0.55451	5.71820	-0.93228
3256.000	8.66380	-0.53887	5.78670	-0.89457
3257.000	8.72176	-0.52699	5.76713	-0.84711
3258.000	8.72755	-0.54861	5.72603	-0.85706
3259.000	8.71403	-0.57026	5.77105	-0.90053
3260.000	8.71789	-0.56829	5.72603	-0.89862
3261.000	8.71596	-0.58795	5.70841	-0.92042
3262.000	8.70437	-0.58010	5.69667	-0.88680
3263.000	8.63675	-0.57431	5.69471	-0.85909
3264.000	8.77004	-0.58393	5.71037	-0.84719
3265.000	8.70051	-0.59584	5.72799	-0.86894
3266.000	8.74493	-0.62526	5.73190	-0.86893
3267.000	8.76232	-0.62720	5.73973	-0.89662
3268.000	8.72562	-0.56238	5.69667	-0.84721
3269.000	8.69858	-0.59388	5.73386	-0.85903
3270.000	8.71596	-0.55059	5.75735	-0.89066
3271.000	8.68312	-0.63716	5.71624	-0.89072
3272.000	8.68699	-0.57227	5.73973	-0.89267
3273.000	8.66187	-0.69619	5.72799	-0.89664
3274.000	8.70437	-0.59780	5.74169	-0.90058
3275.000	8.66187	-0.65096	5.71429	-0.94218
3276.000	8.67153	-0.64112	5.75147	-0.91244
3277.000	8.70824	-0.57617	5.77496	-0.91636
3278.000	8.66767	-0.64309	5.75735	-0.96388
3279.000	8.67153	-0.60965	5.72799	-0.85310
3280.000	8.69471	-0.63321	5.72603	-0.91050
3281.000	8.74107	-0.59578	5.76713	-0.88075
3282.000	8.72369	-0.68232	5.77300	-0.90449
3283.000	8.69085	-0.65485	5.73582	-0.90652
3284.000	8.69085	-0.70990	5.74560	-0.86693
3285.000	8.71403	-0.70789	5.78083	-0.86490
3286.000	8.68892	-0.74530	5.73777	-0.87288
3287.000	8.75073	-0.65867	5.69275	-0.85909
3288.000	8.72948	-0.71180	5.72603	-0.94414
3289.000	8.74107	-0.70981	5.73386	-0.86893
3290.000	8.74300	-0.65082	5.71037	-0.87292
3291.000	8.69278	-0.76102	5.68884	-0.84920
3292.000	8.78356	-0.72545	5.79257	-0.89456
3293.000	8.76038	-0.75106	5.74169	-0.91443
3294.000	8.72562	-0.69018	5.76909	-0.96584
3295.000	8.77776	-0.71957	5.68884	-0.87691
3296.000	8.67926	-0.72172	5.71429	-0.89271
3297.000	8.69858	-0.68433	5.78866	-0.91040
3298.000	8.73141	-0.66854	5.75930	-0.92232
3299.000	8.70437	-0.74134	5.75539	-0.92035
3300.000	8.67346	-0.65684	5.75147	-0.88077
3301.000	8.68505	-0.70598	5.72407	-0.95800
3302.000	8.70051	-0.69416	5.71624	-0.87291
3303.000	8.69471	-0.62535	5.74560	-0.84912
3304.000	8.63289	-0.68445	5.71820	-0.92436
3305.000	8.65221	-0.60575	5.70646	-0.93428
3306.000	8.68312	-0.71975	5.76126	-0.96585
3307.000	8.68699	-0.68828	5.77105	-0.93021
3308.000	8.79321	-0.61142	5.71429	-0.89864
3309.000	8.67153	-0.65685	5.76126	-0.90846
3310.000	8.68699	-0.63912	5.72407	-0.83728
3311.000	8.65607	-0.64114	5.73777	-0.87882
3312.000	8.67733	-0.64307	5.71037	-0.88282
3313.000	8.61549	-0.62548	5.72212	-0.86697
3314.000	8.73335	-0.61742	5.73386	-0.85112
3315.000	8.66380	-0.64506	5.75343	-0.84515
3316.000	8.75073	-0.57217	5.70450	-0.86897
3317.000	8.63868	-0.63134	5.72799	-0.91247
3318.000	8.69665	-0.63517	5.75147	-0.83921
3319.000	8.67926	-0.58998	5.81997	-0.84901
3320.000	8.68892	-0.57030	5.71820	-0.78187
3321.000	8.67733	-0.53295	5.74952	-0.76599
3322.000	8.66187	-0.55657	5.70646	-0.81949
3323.000	8.61549	-0.56647	5.72212	-0.79770
3324.000	8.69471	-0.53686	5.75147	-0.81942
3325.000	8.66960	-0.48380	5.71233	-0.77594
3326.000	8.71210	-0.47784	5.72016	-0.75416
3327.000	8.72176	-0.49356	5.67122	-0.78193
3328.000	8.72176	-0.43851	5.74365	-0.78975
3329.000	8.69085	-0.53686	5.67318	-0.77995
3330.000	8.68505	-0.47001	5.73582	-0.79372
3331.000	8.68505	-0.51524	5.74952	-0.75808
3332.000	8.70437	-0.45819	5.72995	-0.75612
3333.000	8.68119	-0.50541	5.73582	-0.77591
3334.000	8.65801	-0.48185	5.71429	-0.73041
3335.000	8.69085	-0.52507	5.75147	-0.71256
3336.000	8.70630	-0.52111	5.73190	-0.77987
3337.000	8.72755	-0.51322	5.77300	-0.74419
3338.000	8.64834	-0.53889	5.73190	-0.74227
3339.000	8.62516	-0.54089	5.73777	-0.78382
3340.000	8.74300	-0.53679	5.71429	-0.75021
3341.000	8.70244	-0.50539	5.74560	-0.68485
3342.000	8.67346	-0.55262	5.77887	-0.73627
3343.000	8.69085	-0.50344	5.74952	-0.76599
3344.000	8.67153	-0.53296	5.68492	-0.75618
3345.000	8.68699	-0.48771	5.72212	-0.75415
3346.000	8.66960	-0.50346	5.73190	-0.71060
3347.000	8.74107	-0.57218	5.66143	-0.73840
3348.000	8.66960	-0.53296	5.75930	-0.75608
3349.000	8.68505	-0.48181	5.79257	-0.75802
3350.000	8.72369	-0.50339	5.72995	-0.72050
3351.000	8.68699	-0.53884	5.70450	-0.75814
3352.000	8.68505	-0.48378	5.76126	-0.76400
3353.000	8.65801	-0.60574	5.76909	-0.73628
3354.000	8.63482	-0.56448	5.71233	-0.80563
3355.000	8.67539	-0.57818	5.74952	-0.77391
3356.000	8.69858	-0.50736	5.79649	-0.74812
3357.000	8.67153	-0.59589	5.74756	-0.75016
3358.000	8.68699	-0.55457	5.70841	-0.83928
3359.000	8.73914	-0.54663	5.73190	-0.80362
3360.000	8.62902	-0.52319	5.74560	-0.79766
3361.000	8.68312	-0.57031	5.76713	-0.80951
3362.000	8.61936	-0.57040	5.80236	-0.79363
3363.000	8.70630	-0.51718	5.69667	-0.78784
3364.000	8.71983	-0.57222	5.69667	-0.78982
3365.000	8.62516	-0.53892	5.74169	-0.78579
3366.000	8.68119	-0.56441	5.69863	-0.82742
3367.000	8.69858	-0.53095	5.71037	-0.77198
3368.000	8.65994	-0.47398	5.64381	-0.75030
3369.000	8.66767	-0.56836	5.71429	-0.79771
3370.000	8.64448	-0.54676	5.76909	-0.73034
3371.000	8.66187	-0.52511	5.71233	-0.75615
3372.000	8.65801	-0.49365	5.74756	-0.78777
3373.000	8.65607	-0.52315	5.71429	-0.79177
3374.000	8.65028	-0.53496	5.77300	-0.80356
3375.000	8.65607	-0.51725	5.74952	-0.82734
3376.000	8.67153	-0.51919	5.76909	-0.81544
3377.000	8.63675	-0.47794	5.71037	-0.76605
3378.000	8.62709	-0.59006	5.79257	-0.84707
3379.000	8.72755	-0.53878	5.72799	-0.77394
3380.000	8.62902	-0.57432	5.71820	-0.77197
3381.000	8.71210	-0.55650	5.72995	-0.78581
3382.000	8.67539	-0.48576	5.80431	-0.80154
3383.000	8.65028	-0.55069	5.73777	-0.78778
3384.000	8.65607	-0.49758	5.71624	-0.81552
3385.000	8.66960	-0.49166	5.67905	-0.80567
3386.000	8.69665	-0.48376	5.74169	-0.82340
3387.000	8.67346	-0.50346	5.73777	-0.72841
3388.000	8.65801	-0.57624	5.71820	-0.84322
3389.000	8.65994	-0.50741	5.75930	-0.81743
3390.000	8.70824	-0.51914	5.79844	-0.81540
3391.000	8.67346	-0.48576	5.75735	-0.80358
3392.000	8.67153	-0.49559	5.74560	-0.72048
3393.000	8.69858	-0.52112	5.72995	-0.79571
3394.000	8.65607	-0.55461	5.73582	-0.80361
3395.000	8.69085	-0.44444	5.77692	-0.79366
3396.000	8.63868	-0.53301	5.79257	-0.73625
3397.000	8.69858	-0.47786	5.77887	-0.69273
3398.000	8.71789	-0.54862	5.75930	-0.76598
3399.000	8.74687	-0.50139	5.76713	-0.76399
3400.000	8.70244	-0.47786	5.77105	-0.76399
3401.000	8.68892	-0.47001	5.74169	-0.73236
3402.000	8.65414	-0.45235	5.74952	-0.73631
3403.000	8.69085	-0.53686	5.73582	-0.67695
3404.000	8.75073	-0.46796	5.76909	-0.72441
3405.000	8.79128	-0.49150	5.80236	-0.70853
3406.000	8.76811	-0.52103	5.79257	-0.73229
3407.000	8.80480	-0.49738	5.78866	-0.78375
3408.000	8.80093	-0.33618	5.77300	-0.73232
3409.000	8.71403	-0.48374	5.73190	-0.77591
3410.000	8.57490	-0.47802	5.65556	-0.78591
3411.000	8.51690	-0.40136	5.52240	-0.76431
3412.000	8.33505	-0.32872	5.35978	-0.83977
3413.000	8.10072	-0.32104	5.20884	-0.80234
3414.000	7.73416	-0.26810	5.01664	-0.85608
3415.000	7.42918	-0.19530	4.72811	-0.69786
3416.000	7.12377	-0.12831	4.40987	-0.75569
3417.000	6.76922	-0.09878	4.23099	-0.66065
3418.000	6.47076	0.03558	3.95758	-0.54577
3419.000	6.08595	-0.01780	3.69581	-0.62336
3420.000	5.80236	0.04552	3.45753	-0.65331
3421.000	5.54590	0.15445	3.19547	-0.50055
3422.000	5.20296	0.16840	2.87610	-0.44705
3423.000	5.04018	0.33689	2.71042	-0.36167
3424.000	4.72419	0.27162	2.41841	-0.36573
3425.000	4.44132	0.37487	2.09074	-0.26839
3426.000	4.16806	0.40873	1.89328	-0.25053
3427.000	3.92020	0.36321	1.53181	-0.14319
3428.000	3.65447	0.47053	1.33621	-0.14320
3429.000	3.40040	0.45080	1.10698	-0.11338
3430.000	3.17971	0.39925	0.85005	-0.11736
3431.000	2.95300	0.45497	0.66424	-0.07957
3432.000	2.68083	0.40142	0.49226	0.01591
3433.000	2.59798	0.38555	0.22142	0.04974
3434.000	2.36908	0.43332	0.08303	0.15716
3435.000	2.27631	0.42540	-0.06722	0.15915
3436.000	2.21709	0.47312	-0.18781	0.12931
3437.000	2.03546	0.53679	-0.38353	0.22281
3438.000	1.86366	0.47322	-0.49226	0.28647
3439.000	1.77281	0.46530	-0.61878	0.35409
3440.000	1.71750	0.52894	-0.80063	0.36800
3441.000	1.57527	0.71987	-0.97457	0.37793
3442.000	1.36980	0.61454	-1.08722	0.43958
3443.000	1.28681	0.75973	-1.21370	0.53105
3444.000	1.16627	0.74982	-1.34412	0.54096
3445.000	1.00817	0.89702	-1.44686	0.58469
3446.000	0.92120	0.99051	-1.57330	0.50511
3447.000	0.88365	1.11580	-1.69972	0.60848
3448.000	0.75122	1.06811	-1.77873	0.67804
3449.000	0.74924	1.15163	-1.78466	0.68599
3450.000	0.74726	1.10987	-1.81823	0.75954
3451.000	0.81052	1.05418	-1.76491	0.70787
3452.000	0.89156	1.09790	-1.73528	0.78741
3453.000	0.87179	1.07007	-1.67997	0.72977
3454.000	0.96073	1.00641	-1.59108	0.76758
3455.000	1.08920	1.07994	-1.53181	0.67614
3456.000	1.09117	1.05011	-1.54169	0.66818
3457.000	1.19394	1.09183	-1.46069	0.64235
3458.000	1.24334	1.05602	-1.45081	0.66224
3459.000	1.25520	1.04806	-1.50415	0.71194
3460.000	1.19196	1.03417	-1.50810	0.64035
3461.000	1.23148	1.05802	-1.49823	0.59462
3462.000	1.19789	1.07195	-1.59305	0.62243
3463.000	1.12279	0.98647	-1.66417	0.50708
3464.000	1.14453	1.04413	-1.69577	0.48719
3465.000	1.03188	1.10780	-1.72935	0.52297
3466.000	1.03979	1.02627	-1.76095	0.53887
3467.000	0.93899	1.12771	-1.80638	0.57663
3468.000	0.97259	1.12174	-1.82811	0.51101
3469.000	0.94295	1.08794	-1.84193	0.58060
3470.000	0.92911	1.08596	-1.85378	0.62036
3471.000	0.90144	1.10386	-1.83206	0.64422
3472.000	0.91132	1.07006	-1.87551	0.63824
3473.000	0.90737	1.07801	-1.82613	0.65218
3474.000	0.88167	1.07802	-1.80046	0.60248
3475.000	0.90737	1.08199	-1.83206	0.63428
3476.000	0.92713	1.10982	-1.84193	0.64819
3477.000	0.95283	1.14958	-1.85576	0.63825
3478.000	0.89551	1.12972	-1.86958	0.66806
3479.000	0.95876	1.08396	-1.82416	0.57066
3480.000	0.94690	1.13169	-1.86563	0.58854
3481.000	0.89353	1.12176	-1.85378	0.63030
3482.000	0.97062	1.19729	-1.91303	0.61835
3483.000	0.88760	1.17147	-1.87946	0.63824
3484.000	0.91527	1.11778	-1.87946	0.59649
3485.000	0.98840	1.11974	-1.85773	0.55673
3486.000	1.01805	1.12172	-1.87748	0.57064
3487.000	1.02003	1.17143	-1.84588	0.67006
3488.000	1.00817	1.07997	-1.83008	0.57662
3489.000	1.04572	1.20522	-1.83601	0.62235
3490.000	1.01805	1.19529	-1.78071	0.60646
3491.000	1.02991	1.20324	-1.80836	0.64423
3492.000	1.02595	1.23107	-1.80638	0.68598
3493.000	1.01607	1.14359	-1.79848	0.65417
3494.000	1.03188	1.27680	-1.82021	0.67007
3495.000	1.03979	1.25095	-1.77873	0.65617
3496.000	1.07932	1.20720	-1.79058	0.65020
3497.000	1.01607	1.19529	-1.85378	0.66211
3498.000	1.10106	1.16146	-1.77873	0.65219
3499.000	1.04177	1.25294	-1.80243	0.64622
3500.000	1.05560	1.24299	-1.77281	0.63430
3501.000	1.07141	1.23702	-1.77478	0.69991
3502.000	1.06548	1.19129	-1.77873	0.65816
3503.000	1.06943	1.24100	-1.80243	0.62833
3504.000	1.06153	1.20919	-1.81033	0.61639
3505.000	1.06351	1.16545	-1.77873	0.57067
3506.000	1.00619	1.20722	-1.74318	0.63829
3507.000	1.04374	1.20721	-1.73923	0.58063
3508.000	1.01212	1.17143	-1.74713	0.63232
3509.000	1.08722	1.23701	-1.76293	0.53489
3510.000	1.01014	1.19927	-1.74910	0.68004
3511.000	1.05362	1.18732	-1.73528	0.58659
3512.000	1.05758	1.26486	-1.75700	0.63232
3513.000	1.04769	1.24300	-1.75108	0.62635
3514.000	1.05165	1.19329	-1.74713	0.63630
3515.000	0.99829	1.22512	-1.72935	0.65022
3516.000	1.04572	1.25095	-1.73330	0.65022
3517.000	1.05560	1.22510	-1.73330	0.63034
3518.000	0.99829	1.15752	-1.70565	0.58660
3519.000	1.02003	1.17342	-1.75898	0.61641
3520.000	1.04967	1.16347	-1.70170	0.73374
3521.000	1.00619	1.13564	-1.72738	0.69595
3522.000	1.02595	1.15552	-1.75898	0.70588
3523.000	1.00224	1.21717	-1.75108	0.66016
3524.000	1.02793	1.18336	-1.75503	0.72576
3525.000	1.01410	1.14757	-1.73528	0.68203
3526.000	1.05362	1.16148	-1.68985	0.73971
3527.000	0.99433	1.17144	-1.77083	0.74365
3528.000	0.99038	1.14559	-1.75305	0.74565
3529.000	1.02991	1.17341	-1.80638	0.72177
3530.000	0.96864	1.17741	-1.80046	0.76949
3531.000	0.98247	1.15554	-1.76095	0.71781
3532.000	1.06548	1.14159	-1.83008	0.74164
3533.000	0.99236	1.13565	-1.77676	0.71383
3534.000	1.05165	1.23305	-1.82416	0.72375
3535.000	0.99236	1.14161	-1.77676	0.66412
3536.000	1.01805	1.18336	-1.77676	0.69395
3537.000	0.96073	1.13168	-1.83008	0.66808
3538.000	1.03781	1.16546	-1.77873	0.75757
3539.000	0.99038	1.18933	-1.82218	0.71779
3540.000	1.00224	1.11775	-1.83996	0.66410
3541.000	0.97654	1.17940	-1.80046	0.72177
3542.000	0.95876	1.10981	-1.84983	0.69591
3543.000	1.00421	1.12173	-1.84983	0.72573
3544.000	0.95283	1.17543	-1.84786	0.69591
3545.000	0.92911	1.19930	-1.84391	0.68597
3546.000	0.96864	1.22513	-1.81626	0.62236
3547.000	0.97062	1.22513	-1.81626	0.70984
3548.000	0.97062	1.17741	-1.84983	0.65217
3549.000	0.99829	1.22313	-1.87748	0.70385
3550.000	0.96864	1.22712	-1.82218	0.62235
3551.000	0.94492	1.23309	-1.82021	0.59850
3552.000	0.97062	1.22513	-1.82613	0.63627
3553.000	1.02793	1.20523	-1.86563	0.55872
3554.000	0.94295	1.24701	-1.79453	0.62435
3555.000	0.98840	1.20723	-1.86366	0.57860
3556.000	0.93702	1.21122	-1.88143	0.67204
3557.000	0.99236	1.24500	-1.85378	0.63427
3558.000	0.94887	1.16549	-1.80638	0.67206
3559.000	1.01212	1.23108	-1.80836	0.71183
3560.000	0.99236	1.20922	-1.82416	0.68796
3561.000	0.92911	1.24702	-1.79848	0.70785
3562.000	0.92911	1.27087	-1.85181	0.63626
3563.000	1.00224	1.26687	-1.84786	0.71778
3564.000	0.95876	1.22513	-1.85576	0.66012
3565.000	1.03188	1.29867	-1.83403	0.65217
3566.000	1.03386	1.29469	-1.82811	0.64621
3567.000	0.96073	1.22712	-1.84391	0.62036
3568.000	0.97852	1.19928	-1.80243	0.65020
3569.000	1.00026	1.19728	-1.84786	0.61638
3570.000	0.91725	1.22714	-1.83403	0.64024
3571.000	0.94492	1.22514	-1.83206	0.63428
3572.000	0.96271	1.18139	-1.78861	0.61640
3573.000	0.92911	1.15357	-1.77873	0.63231
3574.000	0.89946	1.17942	-1.78861	0.68996
3575.000	0.86981	1.14762	-1.80836	0.71779
3576.000	0.90342	1.25299	-1.78466	0.68400
3577.000	0.97852	1.21121	-1.79848	0.68400
3578.000	0.96864	1.27881	-1.79848	0.67604
3579.000	0.83621	1.20728	-1.81231	0.73966
3580.000	0.87179	1.26095	-1.77281	0.68997
3581.000	0.92713	1.28877	-1.75108	0.63033
3582.000	0.91923	1.29275	-1.67404	0.60848
3583.000	0.92318	1.29275	-1.67404	0.68404
3584.000	0.94492	1.31063	-1.68590	0.72778
3585.000	0.91725	1.27287	-1.69972	0.65818
3586.000	0.96864	1.23507	-1.72540	0.76753
3587.000	0.96666	1.21718	-1.79058	0.87088
3588.000	1.04967	1.25095	-1.86366	0.79928
3589.000	1.05560	1.28872	-1.85971	0.89868
3590.000	1.12082	1.44375	-1.84588	0.87284
3591.000	1.13860	1.41194	-1.87748	0.94240
3592.000	1.17813	1.51925	-1.94462	1.03579
3593.000	1.25124	1.51921	-1.99202	1.04172
3594.000	1.20382	1.51129	-2.01571	1.17288
3595.000	1.27891	1.53112	-2.00386	1.24840
3596.000	1.21172	1.60072	-2.05323	1.30401
3597.000	1.24532	1.72988	-2.05323	1.36759
3598.000	1.32831	1.90467	-2.10456	1.42716
3599.000	1.53774	1.13740	-2.11246	1.42715
3600.000	1.64639	1.71368	-2.05323	1.02777
3601.000	1.83008	3.51509	-2.00189	0.95227
3602.000	1.97424	6.02989	-2.01374	2.14229
3603.000	1.99597	8.71419	-2.00584	3.88498
3604.000	15.07289	8.70180	-1.88538	5.67799
3605.000	NaN	NaN	-1.83996	7.52238
3606.000	NaN	NaN	-1.90513	9.40688
3607.000	NaN	NaN	-2.06310	11.11531
3608.000	NaN	NaN	-6.13481	12.00778
3609.000	NaN	NaN	NaN	NaN
3610.000	NaN	NaN	NaN	NaN
3611.000	NaN	NaN	NaN	NaN
3612.000	NaN	NaN	NaN	NaN
3613.000	NaN	NaN	NaN	NaN
3614.000	NaN	NaN	NaN	NaN
3615.000	NaN	NaN	NaN	NaN
3616.000	NaN	NaN	NaN	NaN
3617.000	NaN	NaN	NaN	NaN
3618.000	NaN	NaN	NaN	NaN
3619.000	NaN	NaN	NaN	NaN
3620.000	NaN	NaN	NaN	NaN
3621.000	NaN	NaN	NaN	NaN
3622.000	NaN	NaN	NaN	NaN
3623.000	NaN	NaN	NaN	NaN
3624.000	NaN	NaN	NaN	NaN
3625.000	NaN	NaN	NaN	NaN
3626.000	NaN	NaN	NaN	NaN
3627.000	NaN	NaN	NaN	NaN
3628.000	NaN	NaN	NaN	NaN
3629.000	NaN	NaN	NaN	NaN
3630.000	NaN	NaN	NaN	NaN
3631.000	NaN	NaN	NaN	NaN
3632.000	NaN	NaN	NaN	NaN
3633.000	NaN	NaN	NaN	NaN
3634.000	NaN	NaN	NaN	NaN
3635.000	NaN	NaN	NaN	NaN
3636.000	NaN	NaN	NaN	NaN
3637.000	NaN	NaN	NaN	NaN
3638.000	NaN	NaN	NaN	NaN
3639.000	NaN	NaN	NaN	NaN
3640.000	NaN	NaN	NaN	NaN
3641.000	NaN	NaN	NaN	NaN
3642.000	NaN	NaN	NaN	NaN
3643.000	NaN	NaN	NaN	NaN
3644.000	NaN	NaN	NaN	NaN
3645.000	NaN	NaN	NaN	NaN
3646.000	NaN	NaN	NaN	NaN
3647.000	NaN	NaN	NaN	NaN
3648.000	NaN	NaN	NaN	NaN
3649.000	NaN	NaN	NaN	NaN
3650.000	NaN	NaN	NaN	NaN
3651.000	NaN	NaN	NaN	NaN
3652.000	NaN	NaN	NaN	NaN
3653.000	NaN	NaN	NaN	NaN
3654.000	NaN	NaN	NaN	NaN
3655.000	NaN	NaN	NaN	NaN
3656.000	NaN	NaN	NaN	NaN
3657.000	NaN	NaN	NaN	NaN
3658.000	NaN	NaN	NaN	NaN
3659.000	NaN	NaN	NaN	NaN
3660.000	NaN	NaN	NaN	NaN
3661.000	NaN	NaN	NaN	NaN
3662.000	NaN	NaN	NaN	NaN
3663.000	NaN	NaN	NaN	NaN
3664.000	NaN	NaN	NaN	NaN
3665.000	NaN	NaN	NaN	NaN
3666.000	NaN	NaN	NaN	NaN
3667.000	NaN	NaN	NaN	NaN
3668.000	NaN	NaN	NaN	NaN
3669.000	NaN	NaN	NaN	NaN
3670.000	NaN	NaN	NaN	NaN
3671.000	NaN	NaN	NaN	NaN
3672.000	NaN	NaN	NaN	NaN
3673.000	NaN	NaN	NaN	NaN
3674.000	NaN	NaN	NaN	NaN
3675.000	NaN	NaN	NaN	NaN
3676.000	NaN	NaN	NaN	NaN
3677.000	NaN	NaN	NaN	NaN
3678.000	NaN	NaN	NaN	NaN
3679.000	NaN	NaN	NaN	NaN
3680.000	NaN	NaN	NaN	NaN
3681.000	NaN	NaN	NaN	NaN
3682.000	NaN	NaN	NaN	NaN
3683.000	NaN	NaN	NaN	NaN
3684.000	NaN	NaN	NaN	NaN
3685.000	NaN	NaN	NaN	NaN
3686.000	NaN	NaN	NaN	NaN
3687.000	NaN	NaN	NaN	NaN
3688.000	NaN	NaN	NaN	NaN
3689.000	NaN	NaN	NaN	NaN
3690.000	NaN	NaN	NaN	NaN
3691.000	NaN	NaN	NaN	NaN
3692.000	NaN	NaN	NaN	NaN
3693.000	NaN	NaN	NaN	NaN
3694.000	NaN	NaN	NaN	NaN
3695.000	NaN	NaN	NaN	NaN
3696.000	NaN	NaN	NaN	NaN
3697.000	NaN	NaN	NaN	NaN
3698.000	NaN	NaN	NaN	NaN
3699.000	NaN	NaN	NaN	NaN
3700.000	NaN	NaN	NaN	NaN
3701.000	NaN	NaN	NaN	NaN
3702.000	NaN	NaN	NaN	NaN
3703.000	NaN	NaN	NaN	NaN
3704.000	NaN	NaN	NaN	NaN
3705.000	NaN	NaN	NaN	NaN
3706.000	NaN	NaN	NaN	NaN
3707.000	NaN	NaN	NaN	NaN
3708.000	NaN	NaN	NaN	NaN
3709.000	NaN	NaN	NaN	NaN
3710.000	NaN	NaN	NaN	NaN
3711.000	NaN	NaN	NaN	NaN
3712.000	NaN	NaN	NaN	NaN
3713.000	NaN	NaN	NaN	NaN
3714.000	NaN	NaN	-3.55798	11.14541
3715.000	NaN	NaN	-2.49735	11.82218
3716.000	NaN	NaN	-1.68590	12.14969
3717.000	NaN	NaN	-1.65627	11.63766
3718.000	NaN	NaN	-1.74120	11.06372
3719.000	NaN	NaN	-1.70367	10.48438
3720.000	NaN	NaN	-1.78663	9.94660
3721.000	NaN	NaN	-1.75305	9.38831
3722.000	NaN	NaN	-1.82416	8.85682
3723.000	NaN	NaN	-1.85773	8.29674
3724.000	NaN	NaN	-1.81428	7.83496
3725.000	NaN	NaN	-1.82811	7.32887
3726.000	-6.77507	13.92159	-1.79651	6.84140
3727.000	-1.56737	13.53223	-1.74910	6.39422
3728.000	3.90642	12.28287	-1.75108	5.95788
3729.000	3.78046	11.67106	-1.76095	5.49717
3730.000	3.59343	11.12396	-1.76293	5.07327
3731.000	3.43586	10.57222	-1.79256	4.64084
3732.000	3.32356	9.96384	-1.72935	4.29116
3733.000	3.21912	9.36260	-1.72935	3.93111
3734.000	3.01412	8.77933	-1.68787	3.65401
3735.000	2.88201	8.29652	-1.68985	3.36675
3736.000	2.70253	7.67024	-1.69380	3.12095
3737.000	2.52695	7.25120	-1.62861	2.81166
3738.000	2.35131	6.87234	-1.64837	2.51597
3739.000	2.17958	6.46718	-1.58318	2.35327
3740.000	2.01176	5.97273	-1.56737	2.15671
3741.000	1.92488	5.61288	-1.59108	2.06335
3742.000	1.84588	5.16772	-1.56342	1.95016
3743.000	1.77676	4.78111	-1.59305	1.93821
3744.000	1.84588	4.44311	-1.59108	2.03951
3745.000	1.81823	4.15450	-1.54959	2.25403
3746.000	1.73133	3.90142	-1.61478	2.32345
3747.000	1.73330	3.67967	-1.67009	2.55365
3748.000	1.68985	3.46186	-1.67602	2.66874
3749.000	1.65232	3.34898	-1.77083	2.78169
3750.000	1.66417	3.23994	-1.72935	2.71232
3751.000	1.66417	3.05755	-1.70960	2.81749
3752.000	1.68392	3.15070	-1.76688	2.83724
3753.000	1.68590	3.14674	-1.77281	2.85707
3754.000	1.65034	3.22014	-1.83206	2.86888
3755.000	1.59898	3.47391	-1.79848	2.80942
3756.000	1.51008	3.63848	-1.78663	2.89870
3757.000	1.47254	3.86430	-1.82021	2.93831
3758.000	1.42710	3.89605	-1.84193	2.88076
3759.000	1.40734	3.94755	-1.80046	2.93438
3760.000	1.40339	4.05443	-1.80638	2.95817
3761.000	1.42117	4.01482	-1.87353	3.03936
3762.000	1.41920	4.07815	-1.84786	2.99181
3763.000	1.42513	4.01283	-1.86563	3.00963
3764.000	1.40142	4.06037	-1.86761	3.01557
3765.000	1.38363	4.01290	-1.85378	3.07112
3766.000	1.32238	3.95759	-1.80836	3.04740
3767.000	1.34214	3.96943	-1.82811	3.06125
3768.000	1.33424	3.99517	-1.83798	3.07114
3769.000	1.34412	3.96151	-1.82416	3.05134
3770.000	1.36585	3.92386	-1.79848	3.04940
3771.000	1.35399	3.92586	-1.82613	3.04340
3772.000	1.35202	3.90013	-1.79651	3.08311
3773.000	1.35992	3.96148	-1.80836	3.05731
3774.000	1.32831	3.91205	-1.82218	3.09694
3775.000	1.34609	3.87836	-1.78663	3.06528
3776.000	1.36585	3.90209	-1.81231	3.08903
3777.000	1.34807	3.89618	-1.80046	3.03155
3778.000	1.31052	3.93187	-1.82416	3.04539
3779.000	1.35795	3.91794	-1.83008	3.06521
3780.000	1.35795	3.86449	-1.83403	3.03744
3781.000	1.34016	3.91401	-1.83798	3.03347
3782.000	1.39351	3.93570	-1.84391	3.03148
3783.000	1.32436	3.95956	-1.84391	3.02355
3784.000	1.38363	3.91988	-1.79848	3.05138
3785.000	1.36190	3.92585	-1.83996	3.05131
3786.000	1.33424	3.94569	-1.77873	3.11090
3787.000	1.36387	3.96148	-1.79848	3.05733
3788.000	1.34609	3.96151	-1.82811	3.03150
3789.000	1.27693	3.98933	-1.83601	2.99976
3790.000	1.32436	3.99915	-1.82613	2.98193
3791.000	1.36387	3.99513	-1.78466	3.00183
3792.000	1.34016	3.98923	-1.81231	2.94824
3793.000	1.30855	3.97938	-1.85576	2.96602
3794.000	1.34412	3.97141	-1.81626	2.92245
3795.000	1.37573	3.99708	-1.82416	2.97202
3796.000	1.33424	4.06642	-1.79453	2.87687
3797.000	1.32633	3.99915	-1.86168	2.94221
3798.000	1.35597	4.08024	-1.82416	2.94624
3799.000	1.31645	3.97739	-1.85971	2.94023
3800.000	1.32040	4.06051	-1.83996	3.01364
3801.000	1.35004	4.01098	-1.84983	2.96206
3802.000	1.31052	4.05261	-1.87946	2.94020
3803.000	1.31843	4.04864	-1.84391	3.00570
3804.000	1.34412	4.05651	-1.87156	2.99177
3805.000	1.29867	4.02690	-1.81033	2.98791
3806.000	1.31250	4.01302	-1.79651	2.96215
3807.000	1.35004	4.02286	-1.86168	2.96799
3808.000	1.31052	3.97740	-1.80638	2.94230
3809.000	1.31843	4.04468	-1.83206	2.96408
3810.000	1.34214	4.02485	-1.80638	3.00576
3811.000	1.39549	4.05642	-1.83403	2.86888
3812.000	1.35992	4.01888	-1.77676	2.96218
3813.000	1.31448	4.00510	-1.86563	2.91642
3814.000	1.30855	4.01105	-1.77281	2.98797
3815.000	1.29274	4.03087	-1.83206	3.04934
3816.000	1.28681	4.02494	-1.81823	2.98393
3817.000	1.27298	4.02100	-1.77478	3.01176
3818.000	1.27693	4.04276	-1.79651	3.04147
3819.000	1.32040	3.99124	-1.78861	3.02959
3820.000	1.27891	3.99526	-1.74318	3.01380
3821.000	1.26508	4.01705	-1.73133	2.98010
3822.000	1.30064	3.94772	-1.74318	3.08320
3823.000	1.32436	4.02092	-1.77478	3.00978
3824.000	1.28484	4.02098	-1.72935	3.09512
3825.000	1.30855	4.00907	-1.80441	3.00180
3826.000	1.32238	3.97144	-1.79453	3.01768
3827.000	1.33819	3.93579	-1.78268	3.00183
3828.000	1.30064	3.94574	-1.79453	3.03354
3829.000	1.36585	3.95949	-1.77873	3.08116
3830.000	1.31843	3.94769	-1.74713	3.05741
3831.000	1.35202	3.93378	-1.77676	2.98995
3832.000	1.29669	3.96356	-1.77281	2.99392
3833.000	1.36190	3.93179	-1.78071	2.92251
3834.000	1.30064	3.94178	-1.76688	2.98203
3835.000	1.33028	3.92392	-1.83206	2.92243
3836.000	1.34016	3.99121	-1.80638	2.91057
3837.000	1.34412	4.02682	-1.81231	2.97402
3838.000	1.35795	3.99316	-1.74515	2.99396
3839.000	1.38561	3.96540	-1.74120	2.99000
3840.000	1.34609	3.94171	-1.77873	2.98598
3841.000	1.35795	4.03274	-1.76095	3.03558
3842.000	1.35202	4.01098	-1.75503	3.03956
3843.000	1.32238	4.01499	-1.77478	3.02961
3844.000	1.33424	4.00507	-1.84786	2.95215
3845.000	1.36387	4.03867	-1.75108	3.00387
3846.000	1.32238	4.01499	-1.76491	3.01773
3847.000	1.34609	3.99911	-1.76886	3.02565
3848.000	1.35202	3.98525	-1.76886	2.97608
3849.000	1.32040	4.02884	-1.77676	3.00383
3850.000	1.34016	4.00704	-1.76491	3.02764
3851.000	1.31645	3.97739	-1.74318	3.05544
3852.000	1.34214	4.02683	-1.75108	3.08517
3853.000	1.31052	4.02688	-1.75503	3.02766
3854.000	1.29274	3.93190	-1.72343	3.04556
3855.000	1.28088	3.97547	-1.77478	3.07125
3856.000	1.30262	3.97939	-1.71750	3.05746
3857.000	1.30064	3.97939	-1.76491	3.02963
3858.000	1.28484	4.01504	-1.76293	3.02765
3859.000	1.28879	4.00514	-1.71750	3.00987
3860.000	1.26310	4.00320	-1.76293	3.02170
3861.000	1.26310	3.99331	-1.71750	3.08126
3862.000	1.26508	3.99726	-1.75108	3.01973
3863.000	1.27496	4.04277	-1.75108	3.00982
3864.000	1.29472	4.03284	-1.73528	3.01183
3865.000	1.32040	3.99322	-1.75305	3.06732
3866.000	1.26903	4.00517	-1.72935	2.96424
3867.000	1.26903	3.99330	-1.72540	3.00589
3868.000	1.27693	3.99131	-1.71355	2.96625
3869.000	1.27496	3.98141	-1.72343	2.99995
3870.000	1.26508	3.97351	-1.68392	3.01389
3871.000	1.27891	3.97547	-1.73330	2.95233
3872.000	1.26310	3.98935	-1.75503	2.93247
3873.000	1.26112	3.99133	-1.72540	2.96226
3874.000	1.29669	4.02492	-1.73133	2.94837
3875.000	1.25520	3.96561	-1.73330	2.98605
3876.000	1.30657	3.95365	-1.71158	2.84923
3877.000	1.23346	3.96366	-1.68392	2.92464
3878.000	1.20975	4.00328	-1.71948	2.88690
3879.000	1.19987	3.93600	-1.73330	2.93647
3880.000	1.26112	3.95768	-1.66219	2.88897
3881.000	1.22555	3.96961	-1.70565	2.92263
3882.000	1.21567	3.92014	-1.73330	2.88688
3883.000	1.23741	3.93792	-1.69577	2.91868
3884.000	1.22160	3.95378	-1.68985	2.95438
3885.000	1.26310	3.95174	-1.68985	2.87703
3886.000	1.24927	3.94186	-1.72540	2.97020
3887.000	1.21567	3.98150	-1.67800	2.90283
3888.000	1.21963	3.95378	-1.66219	2.89889
3889.000	1.21567	3.89836	-1.68787	2.96430
3890.000	1.25717	3.95967	-1.65429	2.94452
3891.000	1.23346	3.92803	-1.66219	2.86914
3892.000	1.22555	4.00722	-1.71355	2.89683
3893.000	1.25520	3.87652	-1.73528	2.89085
3894.000	1.27693	3.92400	-1.69380	2.86909
3895.000	1.28484	3.93389	-1.66417	2.93657
3896.000	1.26903	3.90422	-1.67207	2.85920
3897.000	1.27891	3.91212	-1.72540	2.92458
3898.000	1.27298	3.93391	-1.71355	2.89088
3899.000	1.21963	3.89043	-1.72540	2.86309
3900.000	1.24532	3.92009	-1.68590	2.90679
3901.000	1.24532	3.86466	-1.71553	2.86311
3902.000	1.27100	3.87254	-1.71355	2.89683
3903.000	1.23939	3.85279	-1.67404	2.87705
3904.000	1.30064	3.83686	-1.66614	2.83541
3905.000	1.27693	3.84481	-1.67602	2.91672
3906.000	1.27496	3.87451	-1.68787	2.88695
3907.000	1.23148	3.88844	-1.71158	2.91865
3908.000	1.26310	3.87453	-1.67602	2.93061
3909.000	1.27298	3.82700	-1.70565	2.93849
3910.000	1.31052	3.91801	-1.66022	2.98021
3911.000	1.28484	3.89628	-1.64441	2.90288
3912.000	1.25124	3.91612	-1.69577	2.91471
3913.000	1.21567	3.83896	-1.66219	2.89889
3914.000	1.25322	3.88445	-1.66614	2.94450
3915.000	1.24334	3.84882	-1.65824	2.98815
3916.000	1.31448	3.84079	-1.68392	2.90481
3917.000	1.27496	3.85273	-1.67404	2.98019
3918.000	1.33621	3.85264	-1.66219	2.94451
3919.000	1.26508	3.92204	-1.69577	2.97421
3920.000	1.25717	3.86860	-1.66812	2.94648
3921.000	1.29274	3.90616	-1.66812	2.99607
3922.000	1.29274	3.89824	-1.66022	2.93261
3923.000	1.27693	3.91015	-1.61281	2.93863
3924.000	1.27496	3.89629	-1.63849	2.92868
3925.000	1.28286	3.88242	-1.67207	2.93458
3926.000	1.32436	3.94571	-1.62861	2.92473
3927.000	1.26705	3.96559	-1.68787	3.00595
3928.000	1.25915	3.90423	-1.64046	3.02982
3929.000	1.23346	3.89833	-1.64244	2.95644
3930.000	1.28681	3.94972	-1.63651	2.97033
3931.000	1.22951	3.85676	-1.66219	2.96038
3932.000	1.24532	3.93791	-1.68787	3.03173
3933.000	1.22555	3.97753	-1.66022	2.95840
3934.000	1.18998	3.93007	-1.68392	2.96828
3935.000	1.20579	3.90827	-1.69775	3.02378
3936.000	1.24334	3.91614	-1.67997	3.02381
3937.000	1.21567	3.89044	-1.64639	2.99412
3938.000	1.19987	3.86472	-1.60491	2.92476
3939.000	1.21172	3.84293	-1.63651	2.95843
3940.000	1.23939	3.97949	-1.68787	2.96232
3941.000	1.17022	3.88852	-1.63849	2.99611
3942.000	1.20777	3.84491	-1.64046	3.00404
3943.000	1.20184	3.87462	-1.59898	3.01005
3944.000	1.18208	3.88851	-1.63256	2.94257
3945.000	1.17813	3.87663	-1.65034	2.95246
3946.000	1.15639	3.85092	-1.64837	2.94850
3947.000	1.19394	3.88453	-1.61873	2.96639
3948.000	1.23544	3.88051	-1.63454	2.93463
3949.000	1.20382	3.86670	-1.67009	2.97226
3950.000	1.18998	3.85682	-1.64046	2.96041
3951.000	1.22160	3.87261	-1.66614	2.97624
3952.000	1.17022	3.90238	-1.65034	2.92073
3953.000	1.18603	3.87068	-1.63454	2.96042
3954.000	1.21567	3.93399	-1.64441	2.95049
3955.000	1.20579	3.91817	-1.64837	2.92073
3956.000	1.20975	3.89441	-1.64837	2.91676
3957.000	1.23346	3.90625	-1.64639	2.89296
3958.000	1.20579	3.91025	-1.69972	2.85520
3959.000	1.19394	3.90829	-1.67404	2.83937
3960.000	1.21370	3.88648	-1.63651	2.81958
3961.000	1.26903	3.92402	-1.70170	2.87305
3962.000	1.17813	3.92217	-1.63849	2.85727
3963.000	1.19591	3.89839	-1.65627	2.84733
3964.000	1.26310	3.93590	-1.65034	2.84733
3965.000	1.23544	3.94782	-1.65429	2.87907
3966.000	1.21370	3.95181	-1.61676	2.88705
3967.000	1.22951	3.91814	-1.63256	2.88703
3968.000	1.25322	3.93790	-1.63256	2.93662
3969.000	1.25520	3.93987	-1.67800	2.91870
3970.000	1.17615	3.92613	-1.68392	2.82348
3971.000	1.18010	3.91227	-1.67800	2.93457
3972.000	1.18010	3.93009	-1.61873	2.89895
3973.000	1.20975	3.97953	-1.60491	2.79582
3974.000	1.19394	3.93996	-1.64441	2.84536
3975.000	1.23148	3.91813	-1.64639	2.83345
3976.000	1.17022	3.93604	-1.60886	2.82160
3977.000	1.22160	3.92211	-1.62466	2.88308
3978.000	1.22753	3.95575	-1.65627	2.80963
3979.000	1.16232	3.93209	-1.61873	2.87118
3980.000	1.20184	3.89046	-1.62071	2.90490
3981.000	1.21567	3.96369	-1.63059	2.88108
3982.000	1.19394	3.90829	-1.62664	2.86125
3983.000	1.23741	3.96365	-1.62664	2.90688
3984.000	1.18010	3.93009	-1.60688	2.91881
3985.000	1.20579	3.91619	-1.60293	2.87517
3986.000	1.19789	3.91422	-1.59305	2.92279
3987.000	1.18801	3.92413	-1.63256	2.93067
3988.000	1.22753	3.93991	-1.56935	2.90299
3989.000	1.16232	3.89447	-1.57725	2.91885
3990.000	1.15244	3.95784	-1.56737	2.95258
3991.000	1.17813	3.87069	-1.61281	2.94458
3992.000	1.16825	3.89249	-1.60096	2.91683
3993.000	1.17813	3.90831	-1.58713	2.97834
3994.000	1.15441	3.91230	-1.59700	2.95452
3995.000	1.21172	3.92608	-1.56145	2.96449
3996.000	1.17615	3.88852	-1.63256	2.96637
3997.000	1.16034	3.87072	-1.57923	2.97835
3998.000	1.14848	3.88657	-1.59503	3.00609
3999.000	1.16825	3.84695	-1.54762	3.02202
4000.000	1.15046	3.86479	-1.55749	2.96449
4001.000	1.11884	3.81137	-1.56145	2.99226
4002.000	1.19789	3.83701	-1.57330	2.98431
4003.000	1.09710	3.79952	-1.59503	3.01006
4004.000	1.17220	3.78952	-1.59108	2.94858
4005.000	1.10303	3.78367	-1.61083	3.06159
4006.000	1.16034	3.85092	-1.59503	2.97237
4007.000	1.13663	3.80144	-1.57527	2.97240
4008.000	1.13860	3.78956	-1.58318	3.00809
4009.000	1.12279	3.76384	-1.57725	2.96447
4010.000	1.13663	3.81135	-1.59898	3.01402
4011.000	1.15046	3.80935	-1.61083	3.03383
4012.000	1.14453	3.75589	-1.58318	3.00611
4013.000	1.13070	3.73214	-1.55749	3.00813
4014.000	1.13070	3.77571	-1.56737	3.01605
4015.000	1.15244	3.74597	-1.54169	2.99030
4016.000	1.16825	3.77170	-1.53379	3.02403
4017.000	1.07932	3.76389	-1.56540	3.02596
4018.000	1.15441	3.77568	-1.54169	3.02600
4019.000	1.14453	3.72023	-1.55552	2.99425
4020.000	1.11687	3.83711	-1.54367	3.00616
4021.000	1.13268	3.78165	-1.54959	2.97244
4022.000	1.18010	3.80337	-1.53774	2.99427
4023.000	1.14453	3.77767	-1.56737	2.98233
4024.000	1.12082	3.73809	-1.60096	2.99617
4025.000	1.14453	3.77569	-1.58318	2.99421
4026.000	1.12082	3.78760	-1.59898	2.97634
4027.000	1.14058	3.72222	-1.57923	3.00215
4028.000	1.14651	3.75588	-1.62664	2.98026
4029.000	1.11687	3.75196	-1.56935	2.99026
4030.000	1.17022	3.70436	-1.59503	3.00014
4031.000	1.08722	3.70842	-1.57330	3.02794
4032.000	1.15244	3.73013	-1.58318	2.97239
4033.000	1.12082	3.73809	-1.53576	3.04584
4034.000	1.13268	3.74996	-1.52589	3.01611
4035.000	1.14058	3.74599	-1.51996	3.06569
4036.000	1.13860	3.76580	-1.53576	3.01014
4037.000	1.10106	3.72623	-1.56540	2.99423
4038.000	1.09710	3.76387	-1.56935	3.02398
4039.000	1.11884	3.74602	-1.54169	2.99823
4040.000	1.09117	3.80942	-1.54564	2.98435
4041.000	1.08722	3.76388	-1.58713	2.98627
4042.000	1.13268	3.77769	-1.60293	3.02789
4043.000	1.10303	3.73811	-1.57527	2.99620
4044.000	1.07141	3.75994	-1.57527	3.04380
4045.000	1.11291	3.76583	-1.60293	2.98426
4046.000	1.07141	3.75202	-1.59108	2.99618
4047.000	1.05362	3.75204	-1.53971	2.98634
4048.000	1.04967	3.75798	-1.62861	3.00406
4049.000	1.08524	3.76784	-1.59898	2.98625
4050.000	1.10896	3.78960	-1.58120	2.97239
4051.000	1.09908	3.79753	-1.55947	2.87523
4052.000	1.12675	3.79948	-1.52391	2.96851
4053.000	1.08327	3.76587	-1.60886	2.94260
4054.000	1.04572	3.82334	-1.59700	2.87121
4055.000	1.07734	3.75795	-1.53576	2.91891
4056.000	1.04769	3.78175	-1.61676	2.96243
4057.000	1.06943	3.76192	-1.61478	2.91879
4058.000	1.06548	3.82332	-1.57527	2.91488
4059.000	1.08524	3.82725	-1.60688	2.90690
4060.000	1.07932	3.78964	-1.55947	2.91491
4061.000	1.09513	3.77377	-1.55749	2.94863
4062.000	1.11094	3.84702	-1.58515	2.94462
4063.000	1.08327	3.83716	-1.62071	2.91482
4064.000	1.10896	3.84307	-1.62664	2.88506
4065.000	1.08327	3.78171	-1.63059	2.86323
4066.000	1.05955	3.82729	-1.56737	2.96250
4067.000	1.05165	3.82532	-1.60491	2.92079
4068.000	1.08722	3.77180	-1.57923	2.87917
4069.000	1.05955	3.77778	-1.58120	2.92083
4070.000	1.05362	3.83323	-1.57527	2.91092
4071.000	1.11094	3.82326	-1.63256	2.92670
4072.000	1.08129	3.78171	-1.58318	2.94066
4073.000	1.08129	3.84508	-1.60886	2.91087
4074.000	1.10501	3.86683	-1.56737	2.92481
4075.000	1.08722	3.83121	-1.54169	2.96650
4076.000	1.07339	3.80945	-1.58120	2.93471
4077.000	1.06943	3.82529	-1.58515	2.92479
4078.000	1.07932	3.81142	-1.57527	2.94067
4079.000	1.06943	3.83916	-1.59305	2.93073
4080.000	1.06351	3.84114	-1.62269	2.94655
4081.000	1.08722	3.83319	-1.58910	2.96842
4082.000	1.08524	3.82329	-1.56145	2.98234
4083.000	1.05955	3.86095	-1.56935	2.99621
4084.000	1.07932	3.82726	-1.58318	2.97834
4085.000	1.04177	3.81345	-1.57725	2.91686
4086.000	1.04769	3.87086	-1.52984	2.94073
4087.000	1.06153	3.83719	-1.56342	2.94267
4088.000	1.03584	3.77186	-1.54762	2.98831
4089.000	1.02200	3.89862	-1.53971	2.93675
4090.000	1.04572	3.85899	-1.54959	2.99426
4091.000	1.03979	3.80751	-1.55157	2.94665
4092.000	1.09710	3.84704	-1.51206	2.93481
4093.000	1.03584	3.88672	-1.53971	2.99030
4094.000	1.10106	3.89654	-1.53971	2.92088
4095.000	1.04572	3.81740	-1.51996	2.93876
4096.000	1.04374	3.87087	-1.53576	2.97048
4097.000	1.07141	3.84509	-1.55157	2.98235
4098.000	1.08327	3.82924	-1.52193	3.00818
4099.000	1.08327	3.88468	-1.49823	2.99433
4100.000	1.09513	3.87476	-1.51996	3.01215
4101.000	1.08920	3.93219	-1.53774	3.03989
4102.000	1.07932	3.85102	-1.52391	2.97446
4103.000	1.14058	3.90836	-1.48637	3.00228
4104.000	1.15639	3.86082	-1.52193	3.01413
4105.000	1.12477	3.94204	-1.48045	3.04393
4106.000	1.18998	3.90038	-1.50020	3.06770
4107.000	1.18406	3.89642	-1.45674	3.08958
4108.000	1.18998	3.91423	-1.48440	3.08557
4109.000	1.16627	3.91031	-1.53576	3.06170
4110.000	1.15244	3.94596	-1.45279	3.17088
4111.000	1.11489	3.87870	-1.49230	3.08160
4112.000	1.16034	3.91427	-1.50613	3.14701
4113.000	1.12477	3.88067	-1.50613	3.16684
4114.000	1.14651	3.88064	-1.55354	3.15884
4115.000	1.13663	3.87273	-1.51996	3.26198
4116.000	1.11291	3.80346	-1.53181	3.20843
4117.000	1.14058	3.87272	-1.57527	3.22225
4118.000	1.15639	3.90240	-1.65232	3.24393
4119.000	1.16825	3.90437	-1.65034	3.24790
4120.000	1.14848	3.86479	-1.64046	3.28359
4121.000	1.23148	3.92803	-1.68787	3.23991
4122.000	1.22555	4.08044	-1.64441	3.32917
4123.000	1.23741	4.12990	-1.59898	3.31735
4124.000	1.21370	3.98942	-1.72540	3.11693
4125.000	1.28088	3.71807	-1.83206	3.21587
4126.000	1.49823	3.80683	-1.96437	4.09877
4127.000	1.40932	4.84120	-1.95647	4.98590
4128.000	1.57330	6.09412	-1.99794	5.99244
4129.000	1.69182	7.59528	-2.16971	7.09060
4130.000	1.77478	9.37465	-2.28420	8.61933
4131.000	1.62664	11.30549	-2.62362	10.42819
4132.000	1.42908	13.13762	-3.24277	12.02195
4133.000	NaN	NaN	-7.95728	13.15769
4134.000	NaN	NaN	-9.68879	14.38605
4135.000	NaN	NaN	NaN	NaN
4136.000	NaN	NaN	NaN	NaN
4137.000	NaN	NaN	NaN	NaN
4138.000	NaN	NaN	NaN	NaN
4139.000	NaN	NaN	NaN	NaN
4140.000	NaN	NaN	NaN	NaN
4141.000	NaN	NaN	NaN	NaN
4142.000	NaN	NaN	NaN	NaN
4143.000	NaN	NaN	NaN	NaN
4144.000	NaN	NaN	NaN	NaN
4145.000	NaN	NaN	NaN	NaN
4146.000	NaN	NaN	NaN	NaN
4147.000	NaN	NaN	NaN	NaN
4148.000	NaN	NaN	NaN	NaN
4149.000	NaN	NaN	NaN	NaN
4150.000	NaN	NaN	NaN	NaN
4151.000	NaN	NaN	NaN	NaN
4152.000	NaN	NaN	NaN	NaN
4153.000	NaN	NaN	NaN	NaN
4154.000	NaN	NaN	NaN	NaN
4155.000	NaN	NaN	NaN	NaN
4156.000	NaN	NaN	NaN	NaN
4157.000	NaN	NaN	NaN	NaN
4158.000	NaN	NaN	NaN	NaN
4159.000	NaN	NaN	NaN	NaN
4160.000	NaN	NaN	NaN	NaN
4161.000	NaN	NaN	NaN	NaN
4162.000	NaN	NaN	NaN	NaN
4163.000	NaN	NaN	NaN	NaN
4164.000	NaN	NaN	NaN	NaN
4165.000	NaN	NaN	NaN	NaN
4166.000	NaN	NaN	NaN	NaN
4167.000	NaN	NaN	NaN	NaN
4168.000	NaN	NaN	NaN	NaN
4169.000	NaN	NaN	NaN	NaN
4170.000	NaN	NaN	NaN	NaN
4171.000	NaN	NaN	NaN	NaN
4172.000	NaN	NaN	NaN	NaN
4173.000	NaN	NaN	NaN	NaN
4174.000	NaN	NaN	NaN	NaN
4175.000	NaN	NaN	NaN	NaN
4176.000	NaN	NaN	NaN	NaN
4177.000	NaN	NaN	NaN	NaN
4178.000	NaN	NaN	NaN	NaN
4179.000	NaN	NaN	NaN	NaN
4180.000	NaN	NaN	NaN	NaN
4181.000	NaN	NaN	NaN	NaN
4182.000	NaN	NaN	NaN	NaN
4183.000	NaN	NaN	NaN	NaN
4184.000	NaN	NaN	NaN	NaN
4185.000	NaN	NaN	NaN	NaN
4186.000	NaN	NaN	NaN	NaN
4187.000	NaN	NaN	NaN	NaN
4188.000	NaN	NaN	NaN	NaN
4189.000	NaN	NaN	NaN	NaN
4190.000	NaN	NaN	NaN	NaN
4191.000	NaN	NaN	NaN	NaN
4192.000	NaN	NaN	NaN	NaN
4193.000	NaN	NaN	NaN	NaN
4194.000	NaN	NaN	NaN	NaN
4195.000	NaN	NaN	NaN	NaN
4196.000	NaN	NaN	NaN	NaN
4197.000	NaN	NaN	NaN	NaN
4198.000	NaN	NaN	NaN	NaN
4199.000	NaN	NaN	NaN	NaN
4200.000	NaN	NaN	NaN	NaN
4201.000	NaN	NaN	NaN	NaN
4202.000	NaN	NaN	NaN	NaN
4203.000	NaN	NaN	NaN	NaN
4204.000	NaN	NaN	NaN	NaN
4205.000	NaN	NaN	NaN	NaN
4206.000	NaN	NaN	NaN	NaN
4207.000	NaN	NaN	NaN	NaN
4208.000	NaN	NaN	NaN	NaN
4209.000	NaN	NaN	NaN	NaN
4210.000	NaN	NaN	NaN	NaN
4211.000	NaN	NaN	NaN	NaN
4212.000	NaN	NaN	NaN	NaN
4213.000	NaN	NaN	NaN	NaN
4214.000	NaN	NaN	NaN	NaN
4215.000	NaN	NaN	NaN	NaN
4216.000	NaN	NaN	NaN	NaN
4217.000	NaN	NaN	NaN	NaN
4218.000	NaN	NaN	NaN	NaN
4219.000	NaN	NaN	NaN	NaN
4220.000	NaN	NaN	NaN	NaN
4221.000	NaN	NaN	NaN	NaN
4222.000	NaN	NaN	NaN	NaN
4223.000	NaN	NaN	NaN	NaN
4224.000	NaN	NaN	NaN	NaN
4225.000	NaN	NaN	NaN	NaN
4226.000	NaN	NaN	NaN	NaN
4227.000	NaN	NaN	NaN	NaN
4228.000	NaN	NaN	NaN	NaN
4229.000	NaN	NaN	NaN	NaN
4230.000	NaN	NaN	NaN	NaN
4231.000	NaN	NaN	NaN	NaN
4232.000	NaN	NaN	NaN	NaN
4233.000	NaN	NaN	NaN	NaN
4234.000	NaN	NaN	NaN	NaN
4235.000	NaN	NaN	NaN	NaN
4236.000	NaN	NaN	NaN	NaN
4237.000	NaN	NaN	NaN	NaN
4238.000	NaN	NaN	NaN	NaN
4239.000	NaN	NaN	NaN	NaN
4240.000	NaN	NaN	NaN	NaN
4241.000	NaN	NaN	NaN	NaN
4242.000	NaN	NaN	NaN	NaN
4243.000	NaN	NaN	NaN	NaN
4244.000	NaN	NaN	NaN	NaN
4245.000	NaN	NaN	NaN	NaN
4246.000	NaN	NaN	NaN	NaN
4247.000	NaN	NaN	NaN	NaN
4248.000	NaN	NaN	NaN	NaN
4249.000	NaN	NaN	NaN	NaN
4250.000	NaN	NaN	NaN	NaN
4251.000	NaN	NaN	NaN	NaN
4252.000	NaN	NaN	NaN	NaN
4253.000	NaN	NaN	NaN	NaN
4254.000	NaN	NaN	NaN	NaN
4255.000	NaN	NaN	NaN	NaN
4256.000	NaN	NaN	NaN	NaN
4257.000	NaN	NaN	NaN	NaN
4258.000	NaN	NaN	NaN	NaN
4259.000	NaN	NaN	NaN	NaN
4260.000	NaN	NaN	NaN	NaN
4261.000	NaN	NaN	NaN	NaN
4262.000	NaN	NaN	NaN	NaN
4263.000	NaN	NaN	NaN	NaN
4264.000	NaN	NaN	NaN	NaN
4265.000	NaN	NaN	NaN	NaN
4266.000	NaN	NaN	NaN	NaN
4267.000	NaN	NaN	NaN	NaN
4268.000	NaN	NaN	NaN	NaN
4269.000	NaN	NaN	NaN	NaN
4270.000	NaN	NaN	NaN	NaN
4271.000	NaN	NaN	NaN	NaN
4272.000	NaN	NaN	NaN	NaN
4273.000	NaN	NaN	NaN	NaN
4274.000	NaN	NaN	NaN	NaN
4275.000	NaN	NaN	NaN	NaN
4276.000	NaN	NaN	NaN	NaN
4277.000	NaN	NaN	NaN	NaN
4278.000	NaN	NaN	NaN	NaN
4279.000	NaN	NaN	NaN	NaN
4280.000	NaN	NaN	NaN	NaN
4281.000	NaN	NaN	NaN	NaN
4282.000	NaN	NaN	NaN	NaN
4283.000	NaN	NaN	NaN	NaN
4284.000	NaN	NaN	NaN	NaN
4285.000	NaN	NaN	NaN	NaN
4286.000	NaN	NaN	NaN	NaN
4287.000	NaN	NaN	NaN	NaN
4288.000	NaN	NaN	NaN	NaN
4289.000	9.39077	17.05267	NaN	NaN
4290.000	9.99395	17.25282	NaN	NaN
4291.000	10.42289	17.32729	NaN	NaN
4292.000	10.31193	17.06513	NaN	NaN
4293.000	10.24877	16.71345	NaN	NaN
4294.000	10.10896	16.43971	NaN	NaN
4295.000	9.93066	16.12146	NaN	NaN
4296.000	10.02079	15.68234	NaN	NaN
4297.000	9.80785	15.37539	NaN	NaN
4298.000	9.77137	15.02828	0.23922	15.13726
4299.000	9.64844	14.63585	2.66308	14.04413
4300.000	9.68303	14.25372	5.32450	12.48777
4301.000	9.57541	13.84271	5.35194	12.14692
4302.000	9.56003	13.43201	5.37350	11.79394
4303.000	9.56772	13.05065	5.40485	11.44371
4304.000	9.48312	12.65651	5.43032	11.08702
4305.000	9.40039	12.31332	5.42837	10.74908
4306.000	9.36768	11.83770	5.44600	10.41196
4307.000	9.30223	11.52920	5.41073	10.05196
4308.000	9.20401	11.04131	5.41857	9.70968
4309.000	9.17318	10.76766	5.38722	9.50992
4310.000	9.18667	10.33640	5.37938	9.21502
4311.000	9.10573	10.05518	5.42837	8.95552
4312.000	9.05368	9.74394	5.48126	8.68982
4313.000	9.12308	9.47666	5.44012	8.49290
4314.000	9.07489	9.15652	5.47734	8.24427
4315.000	9.08646	8.92440	5.50673	7.97020
4316.000	9.00355	8.66736	5.51064	7.77779
4317.000	8.90516	8.35825	5.55569	7.59635
4318.000	8.90323	8.26592	5.52631	7.46244
4319.000	8.88780	7.92334	5.58507	7.25332
4320.000	8.83568	7.81835	5.55569	7.26536
4321.000	8.74300	7.67163	5.60269	7.07573
4322.000	8.70244	7.60870	5.62619	7.04230
4323.000	8.61356	7.55250	5.65164	7.08489
4324.000	8.62129	7.48275	5.67709	7.01438
4325.000	8.56910	7.49730	5.69275	7.11753
4326.000	8.56330	7.45100	5.71233	7.04905
4327.000	8.50917	7.46172	5.73777	7.04874
4328.000	8.46856	7.45089	5.75735	7.10309
4329.000	8.51690	7.42868	5.71624	7.09385
4330.000	8.50143	7.36125	5.79844	7.06554
4331.000	8.49370	7.29946	5.78866	7.02667
4332.000	8.47242	7.30760	5.80236	6.98556
4333.000	8.49370	7.31882	5.81801	7.03996
4334.000	8.48790	7.34603	5.80823	7.06152
4335.000	8.46275	7.34263	5.77496	7.01514
4336.000	8.50337	7.34186	5.81801	7.02241
4337.000	8.46662	7.35998	5.87475	7.04900
4338.000	8.47629	7.33850	5.81410	7.02636
4339.000	8.45115	7.35253	5.88844	7.08196
4340.000	8.51497	7.33777	5.83366	7.10798
4341.000	8.48790	7.31506	5.89822	7.05455
4342.000	8.51303	7.33781	5.89235	7.06242
4343.000	8.49176	7.33628	5.89431	7.08188
4344.000	8.51690	7.32806	5.94517	7.06760
4345.000	8.49370	7.34979	5.87866	7.03530
4346.000	8.50530	7.30311	5.88453	7.07421
4347.000	8.49563	7.31491	5.93343	7.06385
4348.000	8.46662	7.40449	5.89822	7.04480
4349.000	8.49563	7.33040	5.90018	7.04478
4350.000	8.48016	7.34424	5.92952	7.07169
4351.000	8.44341	7.41654	5.94517	7.12995
4352.000	8.44728	7.35260	5.93930	7.07742
4353.000	8.42213	7.36275	5.97255	7.03997
4354.000	8.42793	7.32005	5.98037	6.99894
4355.000	8.42020	7.33762	5.93343	7.06190
4356.000	8.48403	7.33255	5.89627	7.04873
4357.000	8.42020	7.36279	5.94321	7.02085
4358.000	8.43954	7.32952	5.93147	7.05218
4359.000	8.40472	7.33211	5.94517	7.05785
4360.000	8.42213	7.31242	5.95690	7.06355
4361.000	8.40859	7.35139	5.93147	7.07946
4362.000	8.42020	7.30471	5.95690	7.10642
4363.000	8.35634	7.32333	5.89822	7.09548
4364.000	8.36215	7.36388	5.95299	7.07334
4365.000	8.33118	7.34316	5.90213	7.12466
4366.000	8.39891	7.33802	5.95103	7.11624
4367.000	8.36989	7.34824	5.90996	7.12456
4368.000	8.37763	7.34810	5.93734	7.11446
4369.000	8.33505	7.34502	5.95690	7.18434
4370.000	8.33312	7.35667	5.93539	7.13982
4371.000	8.30408	7.35915	5.92365	7.11854
4372.000	8.34473	7.37969	5.95299	7.12595
4373.000	8.31376	7.36478	5.94712	7.15330
4374.000	8.33893	7.34882	5.93930	7.18652
4375.000	8.32151	7.36463	5.88649	7.10537
4376.000	8.34473	7.32935	5.95886	7.14341
4377.000	8.30796	7.33778	5.95690	7.14733
4378.000	8.33118	7.31217	5.95299	7.14154
4379.000	8.35247	7.32533	5.91974	7.13807
4380.000	8.32925	7.27541	5.93343	7.15932
4381.000	8.31957	7.31045	5.93930	7.18068
4382.000	8.32925	7.32383	5.90996	7.10117
4383.000	8.26537	7.28046	5.94517	7.14748
4384.000	8.31570	7.31633	5.94908	7.20003
4385.000	8.30021	7.35535	5.92170	7.16532
4386.000	8.30215	7.25654	5.94321	7.16115
4387.000	8.35247	7.36987	5.95494	7.19605
4388.000	8.31183	7.32996	5.98037	7.19183
4389.000	8.29634	7.33218	5.95103	7.17273
4390.000	8.30215	7.31077	5.98232	7.19570
4391.000	8.26537	7.36374	5.98428	7.23852
4392.000	8.30602	7.31457	5.99015	7.19170
4393.000	8.28666	7.33430	5.95886	7.20379
4394.000	8.30602	7.33781	5.98819	7.20731
4395.000	8.28473	7.37306	5.91974	7.21209
4396.000	8.25956	7.34061	5.96863	7.17835
4397.000	8.30215	7.32627	5.97841	7.21328
4398.000	8.36215	7.35032	5.98623	7.20733
4399.000	8.32344	7.33362	5.96472	7.17256
4400.000	8.28666	7.32268	5.96277	7.17258
4401.000	8.28860	7.31102	5.98623	7.17617
4402.000	8.26149	7.31927	6.00383	7.19737
4403.000	8.26343	7.30761	5.97841	7.20354
4404.000	8.24794	7.32726	5.96472	7.21346
4405.000	8.26149	7.30571	5.98428	7.20931
4406.000	8.31957	7.29689	6.00383	7.22852
4407.000	8.28085	7.30342	5.97255	7.23867
4408.000	8.31183	7.37450	5.95886	7.23690
4409.000	8.29828	7.34570	5.97450	7.22112
4410.000	8.31376	7.36478	5.97841	7.23080
4411.000	8.26924	7.37916	5.98819	7.25988
4412.000	8.32731	7.40518	6.01948	7.22637
4413.000	8.35634	7.40270	6.04685	7.20849
4414.000	8.37763	7.49519	6.01361	7.24202
4415.000	8.41826	7.52149	6.00970	7.20897
4416.000	8.41439	7.50029	5.98037	7.25414
4417.000	8.29247	7.48713	5.81410	7.12187
4418.000	8.18403	7.40590	5.74952	7.08174
4419.000	8.03289	7.38347	5.65947	6.95023
4420.000	7.90880	7.24805	5.52631	6.88740
4421.000	7.70310	7.08467	5.28922	6.70451
4422.000	7.40002	6.94383	5.00290	6.50412
4423.000	7.08094	6.71319	4.76149	6.27148
4424.000	6.79261	6.39557	4.56706	6.01051
4425.000	6.49613	6.26466	4.32732	5.81814
4426.000	6.23838	5.99798	4.16610	5.71328
4427.000	6.09572	5.79602	3.99497	5.55529
4428.000	5.91192	5.55107	3.86510	5.36929
4429.000	5.76126	5.37798	3.80802	5.15904
4430.000	5.65947	5.22387	3.71550	5.00398
4431.000	5.54786	5.05594	3.66234	4.87224
4432.000	5.44600	4.90349	3.64069	4.93149
4433.000	5.44404	4.82092	3.57767	4.83918
4434.000	5.42445	4.82894	3.56979	4.79782
4435.000	5.40485	4.78386	3.49889	4.70155
4436.000	5.25394	4.71421	3.42404	4.61117
4437.000	5.11668	4.71523	3.29204	4.61179
4438.000	5.02056	4.58795	3.15014	4.51966
4439.000	4.97347	4.52526	3.04764	4.49048
4440.000	4.93226	4.51175	2.97075	4.39403
4441.000	4.89694	4.43713	2.91751	4.29152
4442.000	4.87535	4.36633	2.84060	4.16928
4443.000	4.83413	4.25424	2.81496	4.03693
4444.000	4.84198	4.28967	2.72818	3.88296
4445.000	4.79487	4.18744	2.67886	3.68526
4446.000	4.81646	4.12618	2.64138	3.64380
4447.000	4.80861	4.05128	2.57825	3.55689
4448.000	4.79487	3.97442	2.52300	3.51546
4449.000	4.77720	3.94887	2.44407	3.59091
4450.000	4.73793	3.95107	2.36513	3.54161
4451.000	4.67902	3.91588	2.30197	3.52593
4452.000	4.68688	3.92768	2.26249	3.55573
4453.000	4.60046	3.91040	2.25657	3.64683
4454.000	4.61028	3.92613	2.23683	3.57758
4455.000	4.59653	3.84922	2.19340	3.65886
4456.000	4.64171	3.85885	2.30394	3.71798
4457.000	4.66135	3.88638	2.28618	3.75959
4458.000	4.69080	3.97107	2.37894	3.83850
4459.000	4.73793	3.91950	2.41644	3.84038
4460.000	4.81254	3.96248	2.48551	3.85799
4461.000	4.89105	3.98767	2.54865	3.84197
4462.000	4.85769	4.05493	2.55062	3.81822
4463.000	4.88320	4.01730	2.59995	3.84380
4464.000	4.87731	4.08242	2.59206	3.91108
4465.000	4.86750	4.10418	2.51116	3.86978
4466.000	4.89105	4.10601	2.50722	3.87573
4467.000	4.86554	4.15743	2.50524	3.85793
4468.000	4.79880	4.12037	2.48156	3.77687
4469.000	4.77916	4.09090	2.47564	3.70762
4470.000	4.74382	4.10492	2.42433	3.74338
4471.000	4.70848	4.06765	2.38684	3.67619
4472.000	4.69866	4.04995	2.39078	3.66232
4473.000	4.74382	4.03588	2.43618	3.60083
4474.000	4.71830	4.00249	2.39671	3.61875
4475.000	4.70259	4.02823	2.45394	3.61464
4476.000	4.75168	3.98256	2.39473	3.56926
4477.000	4.76738	3.98247	2.40460	3.57715
4478.000	4.72419	3.94523	2.40065	3.65438
4479.000	4.83217	4.06100	2.36315	3.56142
4480.000	4.72222	4.02417	2.37697	3.53564
4481.000	4.82039	4.01570	2.39078	3.66232
4482.000	4.77524	4.00808	2.39671	3.69794
4483.000	4.77327	4.00611	2.35131	3.60501
4484.000	4.78702	4.05141	2.34737	3.66441
4485.000	4.72419	4.06756	2.38486	3.68609
4486.000	4.79291	4.03362	2.36710	3.72573
4487.000	4.79683	4.06121	2.35329	3.72576
4488.000	4.78898	4.05337	2.38289	3.68016
4489.000	4.76738	4.04758	2.39868	3.73554
4490.000	4.79880	4.06120	2.35921	3.80689
4491.000	4.76738	4.05744	2.31973	3.70408
4492.000	4.75168	4.03386	2.29210	3.73384
4493.000	4.76149	4.05945	2.36118	3.67428
4494.000	4.78309	4.05735	2.37697	3.66236
4495.000	4.71830	4.08534	2.37894	3.71382
4496.000	4.71633	4.07352	2.36710	3.74948
4497.000	4.73990	4.05366	2.37697	3.74549
4498.000	4.73990	4.02998	2.36908	3.80885
4499.000	4.77131	4.01007	2.40855	3.74937
4500.000	4.73793	4.02802	2.39276	3.67023
4501.000	4.75757	3.98648	2.44604	3.75124
4502.000	4.73793	3.98856	2.39473	3.82461
4503.000	4.73008	4.00439	2.40657	3.78697
4504.000	4.73793	4.02999	2.38092	3.79298
4505.000	4.66527	4.00082	2.37894	3.77122
4506.000	4.73400	4.02607	2.45196	3.83236
4507.000	4.71633	4.01631	2.41249	3.81466
4508.000	4.74775	4.09306	2.40065	3.77512
4509.000	4.74775	4.03191	2.45591	3.73340
4510.000	4.69866	4.02627	2.41052	3.81071
4511.000	4.72419	4.00640	2.43618	3.81064
4512.000	4.71241	4.03014	2.41052	3.77113
4513.000	4.69866	3.97892	2.43815	3.78293
4514.000	4.72811	3.96297	2.44012	3.71761
4515.000	4.71241	3.99660	2.43618	3.73148
4516.000	4.73204	4.01424	2.41052	3.62465
4517.000	4.69866	3.98089	2.46775	3.67597
4518.000	4.69080	3.96515	2.44407	3.71562
4519.000	4.70651	4.00453	2.44999	3.73540
4520.000	4.73204	4.00438	2.42433	3.77505
4521.000	4.68491	4.02438	2.45788	3.76308
4522.000	4.69473	4.01643	2.45788	3.74131
4523.000	4.69473	3.99078	2.45591	3.75319
4524.000	4.70848	3.98281	2.44802	3.75915
4525.000	4.72419	3.99851	2.44604	3.77103
4526.000	4.70259	3.99074	2.44604	3.66811
4527.000	4.66920	3.97514	2.46380	3.60273
4528.000	4.66920	3.96527	2.45986	3.64234
4529.000	4.64171	4.00884	2.43420	3.58104
4530.000	4.67706	3.95931	2.41052	3.65039
4531.000	4.60439	3.93209	2.48551	3.60070
4532.000	4.70455	3.95323	2.43420	3.58500
4533.000	4.65742	3.89627	2.43815	3.61666
4534.000	4.65153	3.93775	2.40065	3.53954
4535.000	4.63778	3.98716	2.45788	3.58097
4536.000	4.65153	3.97129	2.42039	3.61275
4537.000	4.66135	3.93572	2.42039	3.60087
4538.000	4.61224	3.95573	2.41644	3.50782
4539.000	4.62010	3.93397	2.39473	3.57916
4540.000	4.63189	3.92996	2.40263	3.53162
4541.000	4.56510	3.92441	2.43815	3.59884
4542.000	4.62796	3.91419	2.39473	3.45639
4543.000	4.64367	3.93779	2.39671	3.57519
4544.000	4.67313	3.89223	2.39671	3.54549
4545.000	4.60439	3.87484	2.39671	3.50787
4546.000	4.62010	3.91029	2.37894	3.61880
4547.000	4.60046	3.93408	2.41644	3.50980
4548.000	4.65545	3.89233	2.36710	3.58319
4549.000	4.65153	3.91011	2.38881	3.58313
4550.000	4.63778	3.93585	2.36908	3.54358
4551.000	4.57689	3.91052	2.37302	3.59505
4552.000	4.61224	3.90046	2.39671	3.55935
4553.000	4.61814	3.94188	2.35921	3.50598
4554.000	4.62992	3.91221	2.39276	3.50788
4555.000	4.63581	3.93389	2.34737	3.58126
4556.000	4.60635	3.92221	2.34934	3.55354
4557.000	4.59849	3.90251	2.36513	3.62279
4558.000	4.61224	3.89651	2.31579	3.50807
4559.000	4.58278	3.89470	2.37697	3.49802
4560.000	4.61421	3.87084	2.36513	3.58914
4561.000	4.62796	3.89643	2.36118	3.43468
4562.000	4.63974	3.88452	2.39671	3.58707
4563.000	4.59653	3.91437	2.37500	3.58317
4564.000	4.62207	3.87277	2.38486	3.61482
4565.000	4.65545	3.92193	2.41447	3.63256
4566.000	4.60832	3.88864	2.36118	3.72970
4567.000	4.65545	3.95154	2.38684	3.51582
4568.000	4.61814	3.94385	2.40263	3.57716
4569.000	4.65545	3.96141	2.40263	3.59498
4570.000	4.59457	3.93214	2.37105	3.64258
4571.000	4.64563	3.92791	2.37697	3.61484
4572.000	4.65938	3.90612	2.34539	3.65650
4573.000	4.61224	3.92612	2.35329	3.61688
4574.000	4.63189	3.89641	2.37302	3.57328
4575.000	4.60635	3.91826	2.39868	3.62073
4576.000	4.60242	3.94394	2.39671	3.54945
4577.000	4.62796	3.90432	2.35131	3.63669
4578.000	4.63385	3.92995	2.37894	3.57920
4579.000	4.63189	3.96746	2.37105	3.60892
4580.000	4.65545	3.91799	2.35526	3.62282
4581.000	4.63974	3.93189	2.37105	3.55348
4582.000	4.63581	3.93389	2.40065	3.58310
4583.000	4.65153	3.93182	2.40263	3.54944
4584.000	4.61421	3.93401	2.41052	3.59100
4585.000	4.64171	3.89635	2.45986	3.62650
4586.000	4.63974	3.93189	2.42236	3.54741
4587.000	4.63974	3.93584	2.42433	3.52760
4588.000	4.61421	3.90243	2.45591	3.54138
4589.000	4.62010	3.91424	2.43420	3.59687
4590.000	4.65545	3.89233	2.43815	3.48598
4591.000	4.61421	3.91624	2.42631	3.59294
4592.000	4.59064	3.95585	2.43420	3.63053
4593.000	4.58278	3.89668	2.48551	3.52546
4594.000	4.63189	3.93983	2.47959	3.54726
4595.000	4.62992	3.91023	2.43618	3.54143
4596.000	4.58474	3.96180	2.43025	3.49194
4597.000	4.57689	3.92039	2.45788	3.54731
4598.000	4.61421	3.98729	2.48156	3.58289
4599.000	4.57689	3.94013	2.44012	3.60082
4600.000	4.62992	3.88852	2.47170	3.63043
4601.000	4.59064	3.92427	2.48156	3.62446
4602.000	4.57885	3.91841	2.49538	3.61057
4603.000	4.60832	3.88864	2.46775	3.61460
4604.000	4.58671	3.89468	2.43815	3.66417
4605.000	4.53170	3.92459	2.44407	3.61071
4606.000	4.57492	3.84934	2.46972	3.65815
4607.000	4.54349	3.86530	2.49143	3.63037
4608.000	4.60242	3.92223	2.47170	3.71752
4609.000	4.60242	3.93604	2.47762	3.60864
4610.000	4.58278	3.94997	2.45196	3.64434
4611.000	4.59653	3.95187	2.42828	3.62461
4612.000	4.57885	3.92630	2.47762	3.58686
4613.000	4.57885	3.94012	2.48551	3.58288
4614.000	4.53760	3.94429	2.50130	3.59867
4615.000	4.54938	3.96594	2.42631	3.53354
4616.000	4.59260	3.95781	2.46775	3.54729
4617.000	4.59653	3.91831	2.46578	3.64628
4618.000	4.53956	3.89494	2.53879	3.56887
4619.000	4.59653	3.94002	2.47564	3.51163
4620.000	4.57099	3.95990	2.49538	3.52345
4621.000	4.60046	3.91237	2.48551	3.57694
4622.000	4.52974	3.94039	2.52695	3.59662
4623.000	4.51991	3.86543	2.50524	3.52541
4624.000	4.54742	3.91858	2.49340	3.62443
4625.000	4.57296	3.86514	2.51905	3.55507
4626.000	4.53760	3.91666	2.48551	3.62841
4627.000	4.55331	3.92644	2.49538	3.57493
4628.000	4.58278	3.90260	2.49340	3.64027
4629.000	4.60046	3.88868	2.46380	3.59482
4630.000	4.52974	3.96802	2.53681	3.55700
4631.000	4.54349	3.92058	2.51708	3.56101
4632.000	4.56510	3.89875	2.48551	3.65415
4633.000	4.55331	3.90868	2.47564	3.63636
4634.000	4.52974	3.90486	2.47367	3.56113
4635.000	4.53956	3.90678	2.47959	3.66208
4636.000	4.56510	3.92243	2.50919	3.61647
4637.000	4.51402	3.88520	2.46380	3.60075
4638.000	4.52777	3.90289	2.49735	3.63234
4639.000	4.58278	3.96576	2.44604	3.65029
4640.000	4.57099	3.90266	2.52892	3.63819
4641.000	4.52974	3.89696	2.48551	3.66800
4642.000	4.54153	3.93440	2.42828	3.65826
4643.000	4.56314	3.93231	2.47762	3.63833
4644.000	4.54545	3.94425	2.50327	3.60461
4645.000	4.59457	3.84726	2.45196	3.58297
4646.000	4.54742	3.93240	2.53484	3.58670
4647.000	4.58867	3.86506	2.47367	3.73335
4648.000	4.55724	3.92050	2.45591	3.64829
4649.000	4.53760	3.92061	2.47170	3.65418
4650.000	4.57689	3.88289	2.49735	3.59670
4651.000	4.57296	3.90660	2.50130	3.62441
4652.000	4.53563	3.88509	2.49538	3.66006
4653.000	4.54545	3.92451	2.50524	3.60460
4654.000	4.58671	3.94995	2.47762	3.65417
4655.000	4.53956	3.90086	2.51116	3.66991
4656.000	4.59849	3.88277	2.53879	3.65796
4657.000	4.51991	3.93452	2.53287	3.65797
4658.000	4.57492	3.84737	2.49340	3.58880
4659.000	4.57492	3.88487	2.51313	3.59270
4660.000	4.59653	3.91437	2.47367	3.67595
4661.000	4.61814	3.92214	2.50327	3.61450
4662.000	4.52384	3.86541	2.49735	3.67787
4663.000	4.55921	3.88299	2.51313	3.65011
4664.000	4.54938	3.90278	2.51511	3.67782
4665.000	4.53760	3.95022	2.50327	3.57095
4666.000	4.55331	3.93434	2.53287	3.66787
4667.000	4.58671	3.92429	2.51313	3.65407
4668.000	4.53956	3.92060	2.49538	3.63234
4669.000	4.55528	3.89682	2.51708	3.65208
4670.000	4.51795	3.89703	2.49340	3.69569
4671.000	4.57885	3.88880	2.47762	3.69376
4672.000	4.58278	3.87101	2.50919	3.57093
4673.000	4.55135	3.91264	2.47564	3.56905
4674.000	4.56510	3.89677	2.46775	3.64826
4675.000	4.56706	3.86912	2.47564	3.68584
4676.000	4.57492	3.86316	2.48748	3.59475
4677.000	4.57689	3.91842	2.49143	3.67392
4678.000	4.53563	3.88903	2.52497	3.63226
4679.000	4.53760	3.86928	2.50130	3.67587
4680.000	4.55135	3.91264	2.51313	3.60260
4681.000	4.56510	3.90269	2.51116	3.61844
4682.000	4.57296	3.89081	2.51313	3.67188
4683.000	4.56314	3.90665	2.52497	3.61049
4684.000	4.54349	3.95216	2.46775	3.66409
4685.000	4.53367	3.87917	2.47367	3.68585
4686.000	4.51795	3.93453	2.54471	3.70940
4687.000	4.56903	3.90070	2.50130	3.71150
4688.000	4.51795	3.90295	2.50524	3.66399
4689.000	4.54742	3.90476	2.50524	3.67191
4690.000	4.54153	3.86729	2.54076	3.64211
4691.000	4.58671	3.92034	2.52103	3.66592
4692.000	4.51598	3.88124	2.48354	3.60268
4693.000	4.53563	3.87719	2.51708	3.62239
4694.000	4.56510	3.86913	2.52497	3.60851
4695.000	4.51991	3.84569	2.53879	3.68171
4696.000	4.55331	3.87512	2.55457	3.61436
4697.000	4.58474	3.87100	2.49932	3.58482
4698.000	4.58278	3.87891	2.55062	3.60843
4699.000	4.59064	3.86702	2.52497	3.59861
4700.000	4.57099	3.81580	2.54865	3.59458
4701.000	4.50813	3.90497	2.54471	3.60449
4702.000	4.53956	3.85940	2.47170	3.60469
4703.000	4.57099	3.88292	2.49143	3.62839
4704.000	4.54545	3.88701	2.49340	3.58286
4705.000	4.54349	3.85543	2.55062	3.61239
4706.000	4.51009	3.86153	2.51708	3.59269
4707.000	4.52777	3.89302	2.51116	3.62438
4708.000	4.55135	3.90079	2.46972	3.61856
4709.000	4.54938	3.89883	2.50722	3.66596
4710.000	4.58671	3.91047	2.50524	3.63825
4711.000	4.55331	3.85538	2.48946	3.67789
4712.000	4.52581	3.87922	2.49932	3.66202
4713.000	4.51009	3.87338	2.49538	3.66401
4714.000	4.48455	3.89918	2.50919	3.61251
4715.000	4.53760	3.87520	2.52103	3.60060
4716.000	4.54153	3.88505	2.51116	3.62636
4717.000	4.52777	3.91474	2.52695	3.55901
4718.000	4.52777	3.88315	2.52695	3.58474
4719.000	4.56510	3.87111	2.49340	3.56306
4720.000	4.54153	3.88703	2.49143	3.65215
4721.000	4.50420	3.88723	2.51116	3.65209
4722.000	4.56706	3.91847	2.47959	3.63239
4723.000	4.55331	3.86525	2.49735	3.62442
4724.000	4.53170	3.87524	2.49340	3.58088
4725.000	4.48258	3.85181	2.48354	3.59872
4726.000	4.50223	3.84973	2.46972	3.63043
4727.000	4.51009	3.86548	2.47367	3.57895
4728.000	4.47472	3.86764	2.50722	3.57094
4729.000	4.51598	3.86545	2.46183	3.57106
4730.000	4.51598	3.84965	2.49143	3.59078
4731.000	4.54742	3.80013	2.44012	3.60280
4732.000	4.51009	3.84771	2.51116	3.61052
4733.000	4.49241	3.88137	2.46972	3.59480
4734.000	4.52777	3.85946	2.44999	3.62653
4735.000	4.55528	3.91262	2.48551	3.62445
4736.000	4.52974	3.89696	2.42828	3.63055
4737.000	4.49634	3.93267	2.44210	3.71958
4738.000	4.53956	3.95415	2.44210	3.64239
4739.000	4.50420	3.92671	2.50327	3.65212
4740.000	4.54153	3.88505	2.44802	3.64831
4741.000	4.52384	3.94042	2.43223	3.60480
4742.000	4.52384	3.87725	2.49932	3.70161
4743.000	4.55331	3.91263	2.46380	3.69181
4744.000	4.50027	3.88527	2.48748	3.68779
4745.000	4.53563	3.90285	2.47959	3.67791
4746.000	4.50223	3.93856	2.47762	3.70761
4747.000	4.48062	3.89525	2.44210	3.68198
4748.000	4.51991	3.85951	2.46775	3.67597
4749.000	4.52188	3.87331	2.51905	3.61446
4750.000	4.52974	3.95223	2.48156	3.73927
4751.000	4.58082	3.86313	2.47367	3.72148
4752.000	4.52777	3.91474	2.48156	3.65218
4753.000	4.51205	3.88719	2.52892	3.67580
4754.000	4.51598	3.96415	2.44604	3.68592
4755.000	4.54742	3.91661	2.48156	3.72343
4756.000	4.52777	3.94632	2.48354	3.68186
4757.000	4.53760	3.92850	2.49538	3.67787
4758.000	4.55331	3.94816	2.51511	3.66594
4759.000	4.56510	3.90072	2.51313	3.70355
4760.000	4.52384	3.88317	2.50130	3.64420
4761.000	4.50813	3.91484	2.45196	3.68987
4762.000	4.50027	3.86948	2.51511	3.67386
4763.000	4.52581	3.90488	2.49735	3.66401
4764.000	4.51009	3.87535	2.49340	3.67392
4765.000	4.49044	3.86361	2.52695	3.64809
4766.000	4.56117	3.91061	2.50130	3.65212
4767.000	4.57296	3.89278	2.51313	3.70949
4768.000	4.54153	3.96204	2.49340	3.68777
4769.000	4.52581	3.92462	2.48156	3.69968
4770.000	4.59064	3.94795	2.49735	3.67193
4771.000	4.56117	3.89087	2.50524	3.71347
4772.000	4.54938	3.91857	2.48551	3.70759
4773.000	4.53760	3.89889	2.46380	3.61263
4774.000	4.51991	3.85951	2.49932	3.63431
4775.000	4.55135	3.93040	2.47564	3.66209
4776.000	4.53956	3.90283	2.49538	3.61453
4777.000	4.56706	3.94808	2.50722	3.61845
4778.000	4.61421	3.92611	2.49340	3.62047
4779.000	4.49241	3.89124	2.54668	3.61834
4780.000	4.52974	3.90091	2.56641	3.62423
4781.000	4.53760	3.87718	2.54471	3.58272
4782.000	4.54545	3.92846	2.56444	3.57672
4783.000	4.54938	3.93041	2.54865	3.58468
4784.000	4.52188	3.91280	2.53089	3.57483
4785.000	4.56117	3.93430	2.55654	3.66384
4786.000	4.58867	3.86506	2.58219	3.56281
4787.000	4.57296	3.89278	2.53089	3.61839
4788.000	4.58474	3.88482	2.54076	3.55303
4789.000	4.58474	3.89074	2.52300	3.60653
4790.000	4.59260	3.87491	2.60587	3.62016
4791.000	4.59653	3.87094	2.55852	3.61435
4792.000	4.55921	3.86324	2.55852	3.65790
4793.000	4.54153	3.84755	2.54865	3.60646
4794.000	4.54349	3.81792	2.54273	3.61440
4795.000	4.58474	3.86706	2.53484	3.61838
4796.000	4.55921	3.84745	2.56246	3.59256
4797.000	4.57492	3.87106	2.54865	3.57479
4798.000	4.57099	3.85726	2.55260	3.63812
4799.000	4.55135	3.82972	2.60981	3.58847
4800.000	4.57296	3.86712	2.59403	3.58654
4801.000	4.56117	3.80203	2.53681	3.63025
4802.000	4.56314	3.84348	2.57627	3.65191
4803.000	4.56706	3.81187	2.58417	3.63803
4804.000	4.54545	3.87714	2.57233	3.63015
4805.000	4.60046	3.85513	2.55260	3.57477
4806.000	4.57689	3.83749	2.55062	3.61635
4807.000	4.63581	3.87073	2.57825	3.64993
4808.000	4.57885	3.81378	2.56049	3.64800
4809.000	4.60635	3.84522	2.59008	3.70333
4810.000	4.61617	3.87083	2.60390	3.63995
4811.000	4.61224	3.85506	2.56049	3.63810
4812.000	4.55724	3.81982	2.61968	3.65574
4813.000	4.53563	3.83968	2.57825	3.64201
4814.000	4.61028	3.82349	2.57233	3.69942
4815.000	4.55724	3.79810	2.59206	3.64395
4816.000	4.58278	3.87891	2.60587	3.74089
4817.000	4.58082	3.81377	2.59008	3.69146
4818.000	4.59457	3.84924	2.55654	3.65395
4819.000	4.57885	3.82366	2.58022	3.72513
4820.000	4.54349	3.80212	2.57035	3.67964
4821.000	4.61617	3.84122	2.58022	3.65784
4822.000	4.56510	3.81583	2.60587	3.67162
4823.000	4.56706	3.81582	2.62954	3.69134
4824.000	4.55921	3.83955	2.58614	3.69147
4825.000	4.60832	3.85311	2.60587	3.72901
4826.000	4.55528	3.77837	2.57233	3.63807
4827.000	4.61224	3.81953	2.58417	3.64199
4828.000	4.57296	3.85133	2.59206	3.63207
4829.000	4.57885	3.77627	2.57233	3.64005
4830.000	4.57885	3.81378	2.54471	3.62033
4831.000	4.59064	3.79990	2.57233	3.56482
4832.000	4.58474	3.77229	2.58417	3.63011
4833.000	4.57296	3.87107	2.59206	3.59248
4834.000	4.58474	3.81968	2.57233	3.56284
4835.000	4.57689	3.80787	2.58417	3.54895
4836.000	4.65938	3.83901	2.57430	3.57867
4837.000	4.60046	3.80972	2.62362	3.62406
4838.000	4.55331	3.80602	2.57825	3.58460
4839.000	4.61421	3.83728	2.57825	3.52719
4840.000	4.61224	3.88270	2.56246	3.53515
4841.000	4.61224	3.84519	2.59008	3.50538
4842.000	4.61028	3.83731	2.61771	3.52312
4843.000	4.56510	3.83952	2.57035	3.47771
4844.000	4.62207	3.84909	2.59403	3.55684
4845.000	4.58867	3.85519	2.61771	3.52312
4846.000	4.59849	3.81565	2.54076	3.48967
4847.000	4.59653	3.84922	2.52695	3.54911
4848.000	4.59457	3.84924	2.55457	3.56883
4849.000	4.58474	3.88285	2.58022	3.51530
4850.000	4.63581	3.87665	2.55852	3.51338
4851.000	4.65742	3.91008	2.55260	3.51934
4852.000	4.63189	3.87272	2.59798	3.52515
4853.000	4.63385	3.90824	2.53879	3.60451
4854.000	4.60242	3.83537	2.53484	3.60452
4855.000	4.59260	3.87688	2.52497	3.63028
4856.000	4.56706	3.86518	2.53681	3.54116
4857.000	4.62010	3.89450	2.52103	3.62237
4858.000	4.65153	3.86077	2.58219	3.59845
4859.000	4.66331	3.90413	2.57430	3.57867
4860.000	4.56903	3.82371	2.54668	3.56687
4861.000	4.58474	3.84731	2.51708	3.59863
4862.000	4.61224	3.81361	2.53879	3.61639
4863.000	4.62992	3.80364	2.54273	3.56886
4864.000	4.62992	3.82733	2.57233	3.63015
4865.000	4.58278	3.78020	2.55852	3.62227
4866.000	4.62992	3.82536	2.58614	3.60240
4867.000	4.62599	3.81945	2.53287	3.64412
4868.000	4.59260	3.80976	2.51511	3.60061
4869.000	4.57689	3.78813	2.53681	3.61441
4870.000	4.59064	3.81767	2.50130	3.65608
4871.000	4.62010	3.75236	2.55457	3.65989
4872.000	4.61617	3.82740	2.54471	3.63616
4873.000	4.61224	3.80571	2.50919	3.62043
4874.000	4.61224	3.79189	2.52892	3.65996
4875.000	4.58867	3.73673	2.56444	3.66382
4876.000	4.61028	3.80967	2.48354	3.64623
4877.000	4.60832	3.76427	2.51511	3.63031
4878.000	4.63778	3.81347	2.52497	3.58277
4879.000	4.62010	3.77803	2.54471	3.64012
4880.000	4.60046	3.78603	2.53681	3.59660
4881.000	4.60635	3.78007	2.53287	3.61838
4882.000	4.60046	3.79590	2.53089	3.52732
4883.000	4.63189	3.77796	2.52695	3.53327
4884.000	4.67117	3.77775	2.55654	3.61040
4885.000	4.62992	3.80167	2.56641	3.58661
4886.000	4.65742	3.80547	2.54273	3.57876
4887.000	4.63974	3.79372	2.54076	3.58273
4888.000	4.69080	3.80726	2.56049	3.58861
4889.000	4.64171	3.80752	2.56049	3.57871
4890.000	4.66724	3.78765	2.55062	3.54508
4891.000	4.69473	3.78947	2.56049	3.59257
4892.000	4.68884	3.84083	2.57035	3.57473
4893.000	4.65349	3.80154	2.53287	3.62630
4894.000	4.68491	3.83690	2.58219	3.54500
4895.000	4.68884	3.80924	2.53681	3.59660
4896.000	4.72419	3.83669	2.58219	3.55489
4897.000	4.70062	3.82497	2.59600	3.58455
4898.000	4.74971	3.86418	2.58022	3.57866
4899.000	4.71437	3.90384	2.54076	3.61242
4900.000	4.71044	3.85650	2.55457	3.61040
4901.000	4.67706	3.91589	2.51905	3.73322
4902.000	4.67706	3.98496	2.55062	3.64407
4903.000	4.63189	3.92601	2.47367	3.60073
4904.000	4.62403	3.95369	2.43223	3.48996
4905.000	4.50616	3.90696	2.34342	3.36936
4906.000	4.44132	3.81253	2.29605	3.24069
4907.000	4.28014	3.61579	2.12233	3.02105
4908.000	4.12873	3.47417	2.03546	2.84275
4909.000	3.98710	3.29678	1.89130	2.69819
4910.000	3.91823	3.07743	1.77478	2.59121
4911.000	3.76078	2.82457	1.73725	2.37095
4912.000	3.58752	2.69635	1.68392	2.15659
4913.000	3.51465	2.52813	1.63849	2.05933
4914.000	3.46541	2.42123	1.59503	1.91040
4915.000	3.42404	2.34006	1.60688	1.87860
4916.000	3.45162	2.28448	1.53379	1.79722
4917.000	3.40237	2.30640	1.52984	1.80715
4918.000	3.44177	2.34001	1.55157	1.88064
4919.000	3.50677	2.34580	1.58120	1.95610
4920.000	3.51268	2.41516	1.51996	2.00383
4921.000	3.52450	2.42108	1.52391	1.99191
