time (ms)	lx (deg)	ly (deg)	rx (deg)	ry (deg)
0.000	4.59997	-7.20460	4.70441	-5.26375
3.997	6.39839	-6.43764	6.06316	-5.20450
8.001	9.61259	-8.30512	5.05220	-7.54465
11.998	6.46946	-7.21381	4.81015	-7.14568
16.002	3.31051	-7.37723	4.75001	-7.55252
19.998	3.88352	-5.97410	4.22918	-7.17169
23.991	5.81231	-6.82060	4.76394	-7.39379
28.000	8.97920	-7.43214	4.90915	-7.86815
32.054	4.78861	-8.04936	4.72997	-7.67792
36.001	8.73233	-9.15025	4.67870	-7.72206
39.990	8.74913	-7.27071	4.61294	-7.48093
43.998	5.92363	-7.38896	4.84299	-7.95048
47.997	0.96182	-7.60009	4.71080	-7.60091
51.998	6.72002	-7.09091	4.60286	-7.60941
55.995	3.88399	-8.67988	4.66492	-7.43349
59.992	4.23201	-6.33258	4.31723	-4.43497
63.994	7.31689	-6.30435	5.81975	-5.25459
67.997	3.72452	-3.40755	2.61768	-1.72995
71.997	3.69798	-2.55492	-0.77885	-2.51795
75.993	0.73511	-1.78015	-0.23331	-0.33913
79.996	1.11517	-1.65368	2.86539	1.00746
83.988	2.01650	-1.93548	-1.10554	1.51896
88.003	0.80593	1.49561	1.19433	1.03699
91.997	2.42842	0.11773	-2.44274	0.88093
95.996	-0.66779	0.38861	0.50210	1.83201
99.992	-0.75325	0.71265	-0.52659	0.16842
103.996	0.77099	-0.13971	-0.57317	1.11379
107.993	1.95416	-0.17193	-0.34893	0.99109
111.995	-0.60312	0.01178	-2.05482	-0.25523
115.995	0.89805	-1.07054	-1.05627	1.43589
119.993	-0.52540	-0.05322	-2.23040	1.43378
123.998	-0.35700	-0.02341	-1.27549	1.46465
127.993	-0.32786	0.36984	-0.07420	1.06233
131.999	3.26913	1.07166	-0.22276	2.81885
135.991	-1.14826	0.60627	-1.30623	1.64339
139.995	3.09978	-0.16654	-0.95251	1.63545
143.995	-0.66074	1.02726	-0.98554	1.34797
147.994	-0.40899	1.16233	-1.41053	1.25450
151.991	-0.59602	1.24734	-0.91564	1.21886
155.994	-0.50530	0.65840	-1.61510	1.16436
159.995	0.02857	-0.04488	-1.56283	1.40782
163.991	4.38595	-1.15891	-1.36280	0.96811
167.991	-0.30662	0.55019	-0.87555	0.84275
171.998	0.30042	0.67514	1.80338	1.08671
175.994	-1.47298	-0.02887	-2.01035	1.43611
179.991	-0.95177	0.25556	-1.66988	1.11010
184.007	-0.91497	0.39157	-1.49006	0.83827
187.998	-1.31367	0.76282	-0.42048	1.02688
191.993	-0.79578	-1.09176	-0.32667	1.70973
195.994	-1.30456	0.57382	-1.83196	1.39419
199.988	-1.01839	0.39290	-1.65508	0.98503
203.997	-1.26190	0.60257	-1.00261	1.16243
207.993	-0.75084	0.43136	-1.24880	1.67699
211.995	-1.11747	0.21808	-1.67467	1.66401
216.001	-1.01603	0.84440	-1.65505	1.75563
219.993	-1.23518	1.20016	-1.26359	0.88713
223.995	-1.13546	-1.68569	-1.49049	1.52298
227.989	2.28187	-0.18917	-1.38084	1.42869
231.996	-0.85888	0.29328	-1.61763	1.06561
235.993	1.40276	0.69956	-1.63988	1.08680
239.993	-0.94976	0.56078	-1.69282	1.28167
243.990	-0.60223	1.02735	-1.84349	0.84047
247.995	2.01508	0.74092	-1.45693	-0.03165
252.048	-0.98546	0.74890	-1.90073	1.56653
255.996	-0.68072	1.23520	-1.29132	0.77810
259.993	-1.42618	0.89159	-2.11341	1.20640
263.991	-0.48860	1.45525	-1.84597	0.89108
267.993	-0.62181	0.61158	-1.67434	3.73974
271.995	-0.21244	0.59539	-4.12735	0.66222
276.078	NaN	NaN	NaN	NaN
283.998	4.72551	-3.49555	-2.00775	2.72756
287.990	-0.34821	0.67128	-1.90636	2.28905
291.993	2.54950	-2.44180	-1.66450	2.40759
295.993	3.41548	-3.56508	-2.01935	1.50646
299.994	-0.31796	0.79871	-1.67239	1.47270
303.993	-1.73596	0.74666	-1.80353	1.09497
307.990	-0.20159	0.67042	-1.86176	1.50020
311.995	-0.29342	6.75734	-1.66524	1.51309
315.990	-2.19759	4.42750	-1.57386	1.41220
320.014	-0.12662	4.47576	-1.51174	1.56997
323.989	NaN	NaN	2.51029	1.48313
327.992	-2.57266	10.87766	1.85656	1.68661
331.989	0.58692	10.27307	-1.31377	1.82169
335.990	-0.32779	9.96854	-1.29114	1.39520
339.994	-1.82299	10.94152	2.63556	1.23606
343.995	-2.07117	10.44713	1.68563	1.19200
347.990	-2.52934	9.54471	-0.81168	1.23742
351.988	0.50728	10.32672	-0.95792	1.52452
355.991	0.72439	9.79457	-0.96385	1.31919
359.988	-2.37825	10.00180	1.92483	1.17017
363.993	-0.04097	9.48428	2.99175	1.06123
367.990	-4.52190	9.01193	2.67801	0.91799
371.990	-2.31797	8.96655	-0.79900	1.06786
375.988	0.94110	9.32117	0.05187	0.83457
379.992	1.22499	8.55791	-0.08847	0.59703
383.991	-0.05869	7.30979	0.66369	0.35134
388.013	0.88235	1.14096	2.49956	-7.56966
391.991	1.20656	0.84770	1.78260	-9.19151
395.990	0.54446	0.83426	1.92847	-8.50384
399.985	0.47594	0.67815	1.93422	-8.84898
403.993	1.00990	0.53148	1.80360	-9.06035
407.989	1.20256	0.15492	1.65560	-9.50057
411.990	1.27244	0.28768	1.70450	-10.83166
415.989	-0.34134	0.80251	2.09955	-11.05665
419.985	0.97080	0.57883	2.31421	-11.32292
423.997	0.16355	0.45468	2.75891	-5.95027
427.989	-0.25927	0.55918	2.43211	-6.43877
431.989	-0.13794	0.61176	2.12543	-6.42951
435.988	0.14091	0.50229	2.71758	-7.44203
439.987	-0.42313	0.43973	3.10230	-8.26080
443.992	3.62810	0.64763	2.65684	-7.83634
447.987	0.21820	0.78756	4.47809	-9.36848
451.987	0.11156	1.17982	5.77423	-10.00048
456.011	-0.05132	1.32668	5.14961	-4.27792
459.989	0.27448	0.54986	5.40213	-4.08786
463.992	-0.04795	-0.35119	2.70574	-9.17279
467.985	-0.77789	0.57670	2.85529	-4.11375
471.991	0.15819	-1.11643	3.72133	-4.33600
475.986	0.02718	0.08073	5.45083	-4.90666
479.988	0.29371	-0.03702	5.71758	-5.39290
483.983	0.27413	0.17809	6.01962	-5.75305
487.989	0.57563	-0.10734	2.51628	-5.25673
491.863	-1.17403	-0.07448	5.13382	-5.74051
495.859	0.24269	-0.16380	5.09037	-6.47885
499.866	1.37325	-0.04747	5.77453	-1.77549
503.861	0.49845	-0.08739	6.11037	-1.68373
507.863	1.17728	0.04777	4.07419	-1.73682
511.864	0.81431	-0.09158	5.98601	-2.05808
515.878	1.23486	-0.16362	5.74362	-2.32556
519.858	-1.74030	0.23598	6.43520	-2.59238
523.867	1.48793	0.04312	5.77040	-2.96560
527.861	-0.52850	0.51004	5.43595	1.50646
531.860	1.89808	0.54117	6.85574	1.42882
535.860	0.70982	1.03751	9.78616	0.09124
539.862	-1.81671	0.76341	5.82366	0.88756
543.864	-0.12257	0.57472	6.64158	0.49694
547.858	1.64588	1.36313	9.62516	-0.45492
551.866	0.26292	-0.89230	5.65418	0.14434
555.860	-1.45899	0.80199	8.18025	-0.40554
559.861	1.08790	0.60740	9.45406	3.47941
563.860	-0.61409	0.40501	5.61640	3.90020
567.863	-0.38273	0.84884	9.35375	2.84837
571.857	1.58909	0.64863	9.43368	2.77144
575.873	-1.59700	0.58969	4.04910	3.43198
579.868	-0.82965	0.85441	9.42871	2.30684
583.863	0.65337	0.65113	9.13497	6.31490
587.862	-0.32431	0.27574	9.03558	2.23245
591.898	0.43487	0.40830	9.32729	6.15058
595.867	0.77588	0.44430	9.41641	5.74356
599.860	0.25048	0.52035	9.51071	5.77569
603.860	6.45909	-1.49011	10.09520	5.66131
607.859	-1.57406	0.16886	9.44660	5.71680
611.860	-0.47406	0.47002	9.62818	5.77568
615.858	0.16136	0.30877	8.95181	5.67468
619.860	2.12863	0.00879	10.23567	5.80824
623.861	0.54428	-0.42750	11.75948	8.38610
627.865	1.25178	-0.26209	10.26151	5.75830
631.859	-0.03996	-0.12753	11.80333	8.63347
635.863	0.00000	-0.64473	10.31703	8.92480
639.861	-0.28920	-0.02040	0.53642	0.39316
643.862	-2.16173	-0.34289	-0.40075	1.17122
647.859	1.83613	-0.59041	0.30032	0.77456
651.859	0.93631	-0.45936	-0.48574	0.90977
655.861	-0.36697	-0.30487	0.05361	0.74561
659.862	-0.44830	-0.30702	-0.44676	0.70519
663.861	-0.41879	0.20487	-5.04422	0.76450
667.864	-0.43266	-0.54976	-0.90572	0.80906
671.860	-0.37695	-0.28474	-1.05528	0.63429
675.866	-0.48324	-0.89335	-0.41581	0.69972
679.927	4.96137	0.69586	-1.08783	0.69664
683.867	-0.62498	-0.41900	-5.96880	-1.66879
687.861	-0.55955	0.97099	-0.70851	0.69447
691.857	-0.05145	-0.92970	-1.13375	0.63050
695.857	4.75043	0.18117	-0.71335	0.52883
699.857	-0.37291	0.15848	-0.98320	0.48778
703.861	2.72419	-0.07374	-1.12757	0.42332
707.854	-0.16382	-0.62905	-0.58032	0.27283
711.861	1.66651	-0.70516	-0.95241	0.32108
715.861	-0.23038	0.99572	-0.38524	0.13075
719.864	-0.04763	-0.57467	-0.76546	0.08947
723.856	0.15945	0.36401	-0.80692	0.16098
727.855	-0.11855	-0.76901	-0.24676	0.08237
731.860	-0.21117	-0.41770	-0.98043	-0.02775
735.862	5.13173	-0.06536	-0.47105	0.16668
739.858	-1.77816	-0.17247	-0.23999	0.13997
743.860	-0.06088	-0.40687	-0.75059	0.13181
747.855	-0.05222	-0.56304	-0.49592	0.36894
751.861	-0.80131	-0.34800	-0.12647	0.30097
755.858	-0.29878	0.60356	0.27729	0.62711
759.863	-0.05750	-0.46417	-0.09473	0.90697
763.857	0.01303	0.39221	0.05944	1.27274
767.867	0.01335	-0.56254	0.10813	1.76294
771.859	0.30091	0.05561	0.50676	0.31207
775.854	0.09674	-0.23102	0.49661	0.89399
779.861	0.18427	-0.61479	1.18527	1.03118
783.857	0.35943	-0.62887	-0.66106	0.82861
787.856	0.07152	-0.71572	2.91403	1.47601
791.859	0.54788	0.14380	0.49160	1.08561
795.894	0.27595	0.51341	0.86471	1.35022
799.863	-0.23358	0.49731	0.15712	-0.06580
803.861	0.52121	0.03295	-0.06798	1.11198
807.859	0.42611	0.39178	0.41507	0.64792
811.851	0.15106	0.91658	-3.09275	-0.31309
815.861	0.66392	0.70392	-0.15501	-0.32403
819.857	0.21698	0.69457	-0.34873	0.27313
823.858	0.08676	-1.05753	0.42902	-1.04255
827.854	-0.13141	-0.22247	-0.22817	0.71268
831.870	-0.02057	-1.98331	0.24160	0.51587
835.856	-0.08421	-0.88257	0.45696	-0.28066
839.861	-0.92291	0.79460	-0.45892	-0.40298
843.862	2.25221	0.00449	-1.20043	1.07600
847.856	-0.26349	-0.86306	-0.86954	0.41103
851.856	-0.47793	0.47159	-0.76317	0.16580
855.855	-0.80481	-1.51706	-0.49984	0.12869
859.858	-0.83205	-1.19802	-1.37419	0.21757
863.877	-0.63077	-1.26111	-0.98057	-0.05141
867.860	-1.17731	-0.46062	-1.58445	0.14519
871.854	-1.40832	0.20897	-1.17384	-1.00513
875.854	-1.10271	-1.19798	2.42639	-0.24067
879.877	-0.71702	-1.42668	-1.33349	-0.18513
883.858	-1.52459	-1.49438	-1.01665	-0.23325
887.866	-1.07507	-1.67225	-1.31032	0.72447
891.857	6.76699	-2.71372	-1.20115	0.09719
895.856	0.34486	-0.43402	-1.60444	-0.30031
899.855	-1.96189	-0.72295	-1.70698	-0.70909
903.857	1.12256	-1.62168	-1.20147	-1.53209
907.851	-1.37359	-1.38040	-0.73270	0.07549
911.852	-0.95971	-2.10591	-1.69701	-0.39626
915.859	-1.06036	-1.04422	-1.74380	-1.09920
919.853	-0.92574	-0.31460	-1.25081	-0.23069
923.853	-1.17535	-0.20141	-1.71970	-0.11142
927.862	-2.30102	-1.02796	-1.67834	-0.35941
931.854	-2.27052	-0.92726	-1.75870	-1.03990
935.860	-1.39205	-1.31020	-1.22561	-0.46521
939.853	-1.20437	-1.10707	-0.90428	-0.45420
943.856	-1.24582	-1.48619	-0.68796	-0.36955
947.850	-1.02645	-1.36022	-0.90699	0.32550
951.858	-0.99358	-1.17286	-1.02302	-0.11598
955.853	-0.99849	-0.50189	-1.64947	-0.24419
959.853	-0.61064	-0.04348	-1.64905	-0.06550
963.856	3.13011	-0.50653	-1.30285	-0.42237
967.858	-0.81766	-0.48656	0.04368	-0.14763
971.859	-1.24878	-0.22888	0.83312	0.33535
975.852	-0.95648	-0.30893	-0.70811	-0.06485
979.856	-0.81404	-0.33958	-0.77350	-0.25880
983.853	-0.61235	-0.26801	-1.54463	0.46559
987.851	-1.02985	-0.24728	-0.96509	0.92261
991.857	-0.97665	-0.13928	-1.54904	0.85513
995.854	-0.48902	-0.37379	-1.76095	-0.04657
999.886	-1.17592	-0.26384	-0.98889	0.31755
1003.855	-0.64940	-0.85497	-1.59040	-0.16613
1007.850	-0.58860	-0.82762	-1.78622	0.55517
1011.864	-1.03801	-0.48534	-1.40256	-0.36348
1015.855	-0.93207	-0.66852	-1.08564	-0.14865
1019.854	3.01282	-0.10075	-1.56248	0.62522
1023.852	-1.00377	-0.37506	-0.73315	0.53489
1027.855	3.30017	-1.60924	-0.75352	0.31165
1031.851	-1.24200	-0.93191	-1.67124	0.36363
1035.851	-0.54826	-0.47951	-0.99256	0.58663
1039.856	-0.63948	-0.28883	-1.16195	0.42840
1043.854	-1.88921	-0.92021	-4.60306	0.67837
1047.857	-3.38469	0.67935	-5.93311	2.71618
1051.857	-4.17228	1.34296	-5.97666	1.41593
1055.852	-4.89345	0.86614	-7.09165	2.77540
1059.854	-8.71397	0.36791	-9.21877	3.39753
1063.851	-7.89189	1.16779	-11.21871	2.75371
1067.867	-8.58755	0.69504	-11.49445	3.03788
1071.853	-12.16292	9.76368	-11.72486	3.32582
1075.852	-11.91952	11.43652	-11.85885	3.01013
1079.857	-12.12293	8.00163	-12.13107	3.49304
1083.854	-12.56905	9.03126	-11.87715	3.29011
1087.853	-8.73419	1.20758	-11.71972	3.41188
1091.905	-10.90530	7.10920	-11.59844	3.57609
1095.865	-9.41960	1.70864	-11.99984	4.35530
1099.850	-10.67375	8.95567	-11.84057	3.33954
1103.855	-12.27993	8.70562	-11.97698	2.48393
1107.851	-10.53519	0.88221	-11.86809	3.31800
1111.853	-9.26309	2.00014	-11.82378	2.80856
1115.849	-10.30043	2.22078	-11.90823	3.18579
1119.853	-9.78491	2.19077	-11.99023	3.49253
1123.850	-10.05847	1.23342	-11.59318	4.36183
1127.853	-10.46129	1.31101	-11.61025	2.91860
1131.849	-9.90185	1.81869	-11.92306	3.28372
1135.878	-10.33891	1.83781	-11.81137	3.31728
1139.860	-10.01905	2.13651	-11.65292	2.74831
1143.854	-10.37273	1.84284	-11.72822	2.91113
1147.855	-8.59568	1.38506	-11.61042	3.15836
1151.852	-10.24608	1.36377	-11.61835	2.78177
1155.853	-10.49219	1.55333	-11.42751	3.45847
1159.849	-9.95565	1.96305	-11.84211	3.64543
1163.853	-10.39681	1.93471	-11.26801	3.18285
1167.850	-10.59618	1.97675	-12.04163	2.68333
1171.852	-8.68516	0.52153	-11.25588	1.97701
1175.853	-10.38127	1.06254	-11.45567	2.83557
1179.855	-10.26470	1.29114	-11.37765	2.03177
1183.850	-10.19918	1.36801	-11.40453	2.19412
1187.849	-10.46220	1.48828	-11.35232	2.43522
1191.854	-10.07827	1.70278	-11.52510	2.51374
1195.850	-9.82243	2.00931	-11.84109	2.30103
1199.849	-10.04340	2.65944	-11.62628	2.58588
1203.876	-10.37594	0.90257	-11.66046	2.98966
1207.856	-10.07131	1.43814	-12.15794	3.00244
1211.849	-9.92695	0.83598	-11.87729	3.46355
1215.851	-10.13561	0.95674	-11.26672	2.47696
1219.853	-10.23574	1.39767	-10.56291	3.07822
1223.853	-9.99732	2.06426	-11.47400	2.37175
1227.850	-9.82289	2.58514	-11.02521	2.22929
1231.848	-10.08038	1.91560	-10.92222	2.33854
1235.848	-9.84228	0.90309	-11.14139	2.63050
1239.847	-10.09802	1.15429	-11.32390	2.26069
1243.851	-9.66993	1.83102	-11.53560	2.41921
1247.851	-9.82257	2.03516	-11.11239	2.72579
1251.847	-10.05835	2.44277	-11.08077	2.22865
1255.851	-10.21618	2.01931	-10.18553	2.61170
1259.855	-10.12799	1.76222	-11.19738	2.19580
1263.851	-10.10369	1.62763	-11.28061	2.24368
1267.854	-9.84139	1.99675	-11.44301	2.11799
1271.848	-9.79168	2.50232	-11.38659	2.33892
1275.848	-9.21454	2.54713	-11.39322	2.46189
1279.849	-10.04928	1.71721	-11.40171	2.52118
1283.851	-10.30639	1.61912	-11.28374	1.31768
1287.849	-10.42480	1.95121	-11.30367	2.14253
1291.853	-10.55474	1.93395	-11.69914	2.42153
1295.848	-10.87309	1.88855	-11.67129	2.76216
1299.855	-9.88593	1.62679	-11.61249	2.49763
1303.858	-9.84753	1.56075	-11.47610	1.90820
1307.852	-9.97455	1.92801	-11.55776	1.66383
1311.848	-9.96682	2.31551	-11.71718	1.96610
1315.903	-10.13306	2.53144	-11.83629	2.09129
1319.851	-10.27744	1.96744	-11.66760	2.79738
1323.847	-10.14889	1.86571	-11.43934	2.84548
1327.850	-10.21704	2.18577	-11.50823	2.00226
1331.850	-10.10410	2.31988	-11.61363	2.06315
1335.851	-10.20399	2.62709	-11.75679	2.21852
1339.844	-10.23976	2.10136	-11.74111	2.11605
1343.727	-10.05296	2.03830	-11.85205	2.29523
1347.726	-10.20173	2.09013	-11.82221	2.47076
1351.725	-10.18245	2.54995	-11.69236	3.18451
1355.847	-10.31617	2.75852	-11.07300	3.09683
1359.721	-10.43572	2.90810	-11.47832	2.33997
1363.722	-10.32688	2.76238	-11.40801	1.81642
1367.722	-10.44737	2.75098	-11.68648	2.00936
1371.724	-10.48000	2.86085	-11.70940	2.01352
1375.723	-10.29606	2.06217	-11.63990	1.90945
1379.723	-10.36192	2.35145	-11.59018	1.91993
1383.721	-10.41950	2.21879	-11.23910	2.15219
1387.736	-9.94243	2.50047	-10.09710	2.52601
1391.732	-9.12827	2.25363	-7.52888	4.00845
1395.724	-8.97128	2.17219	-6.06362	5.02066
1399.723	-6.41266	3.32108	-3.22020	5.03234
1403.720	-2.82335	3.38056	0.54133	5.17783
1407.718	0.39445	4.06117	2.50306	4.73155
1411.721	-0.68732	4.67669	3.10007	5.19713
1415.727	3.71290	2.02443	5.58901	4.83491
1419.721	5.95128	2.55445	6.23481	4.43040
1423.723	8.71780	2.09169	6.49969	5.32572
1427.720	10.60052	1.88747	8.79235	4.89794
1431.725	11.31159	1.76287	9.78633	4.83295
1435.739	13.85512	1.82084	10.72105	4.72339
1439.721	14.53853	1.90798	12.55765	4.23705
1443.718	17.12949	1.64174	11.85932	4.37469
1447.719	15.45066	2.39762	12.26121	4.14825
1451.724	16.59029	1.51210	11.87572	4.27455
1455.721	16.45094	1.50550	12.78571	4.01435
1459.723	15.70179	2.12422	12.01965	4.46373
1463.721	14.75405	1.53596	12.11164	4.35021
1467.720	15.75134	1.46136	11.95059	4.44575
1471.726	18.48334	1.12948	11.99878	4.22456
1475.721	14.82393	1.22247	12.00450	4.01378
1479.723	17.72126	-0.81971	12.56287	3.49433
1483.721	18.61546	1.39014	13.34308	3.70038
1487.723	15.89072	1.74635	12.07348	4.42596
1491.722	16.42028	1.12132	11.93479	4.85170
1495.720	13.39774	1.48978	11.91464	4.38652
1499.719	16.25528	-0.65257	11.84396	4.35052
1503.722	15.76869	1.26293	11.82820	4.24012
1507.719	16.08951	1.24784	11.65732	4.03621
1511.721	17.51133	0.01306	11.60149	3.66675
1515.752	14.18293	0.79336	11.13064	5.02757
1519.724	17.55639	-0.95023	11.48277	4.23581
1523.719	13.31196	0.84970	11.97384	4.17746
1527.723	14.61299	1.06624	11.41192	4.48509
1531.719	15.44241	0.93616	11.74965	4.45842
1535.721	15.63025	1.04288	11.30705	4.73728
1539.717	19.66887	0.86166	11.25605	4.04507
1543.718	15.87446	0.95611	11.24784	4.35533
1547.718	18.58324	0.77844	11.28126	4.11139
1551.724	15.94435	0.76045	11.41087	4.27973
1555.724	19.20249	0.09326	11.50558	4.45457
1559.717	16.39897	0.76523	11.46647	4.32793
1563.722	19.20075	0.03168	12.58952	3.68833
1567.718	15.56026	0.30847	11.29865	4.48093
1571.721	18.70525	-0.39489	11.23155	3.92290
1575.715	16.05033	0.39304	11.33702	4.17868
1579.720	15.67876	0.53240	11.46764	4.48242
1583.719	15.79882	0.47071	11.37319	4.43611
1587.721	15.54646	0.55544	14.11608	2.76733
1591.720	18.83236	-0.84192	11.34630	4.40664
1595.717	15.70432	0.20058	11.53172	4.41325
1599.727	14.41287	0.68044	11.63247	4.75270
1603.719	15.91257	-0.31611	13.35120	4.32314
1607.719	14.74388	0.13155	11.44690	3.83336
1611.724	16.07579	0.03109	11.44494	4.41577
1615.721	15.42862	0.42289	11.57843	4.95952
1619.721	19.00383	-0.15814	11.89875	4.37967
1623.715	15.91766	0.05276	14.87457	3.88580
1627.723	15.49439	0.55065	12.00884	3.58979
1631.719	15.84606	0.11223	12.04775	4.21429
1635.719	15.20455	0.38810	11.98474	4.64616
1639.726	16.21066	0.61667	11.46564	4.77422
1643.720	14.77537	0.91852	12.65037	3.72889
1647.719	15.52013	0.21134	11.36427	4.25424
1651.730	NaN	NaN	NaN	NaN
1659.725	15.69376	0.99590	11.62780	4.76180
1663.719	15.55565	0.45251	12.72664	4.31631
1667.715	15.47127	0.25203	11.46170	4.60139
1671.716	16.62560	0.12512	12.08274	3.88955
1675.721	14.16186	1.21557	11.72277	4.60680
1679.723	17.95207	-0.25831	12.04293	4.89034
1683.719	15.83184	0.52038	11.91282	4.71494
1687.721	14.83947	1.11500	11.87677	4.61085
1691.721	16.11881	0.15066	13.52597	4.23680
1695.715	19.12358	-1.42974	13.48796	3.68032
1699.747	17.65992	-0.39272	13.70964	3.55012
1703.718	17.16815	-1.10192	14.32588	3.40382
1707.716	18.35835	-1.58480	13.91491	3.66758
1711.715	17.71295	-1.64235	14.01870	4.13057
1715.717	19.18944	-1.91661	14.12133	3.68109
1719.715	17.65652	-1.06716	13.59180	4.71599
1723.719	19.06740	-2.11237	14.37028	3.52637
1727.725	18.48706	-1.33541	14.03781	3.25853
1731.717	19.14311	-1.53607	14.12973	3.44833
1735.716	17.64352	-1.52711	14.53667	3.19817
1739.718	19.27112	-1.90312	14.29466	3.39529
1743.716	17.78719	-1.35213	14.44213	3.06256
1747.745	20.82312	-1.93711	14.42381	4.33637
1751.717	18.35747	-0.78918	14.21425	3.28590
1755.716	19.15394	-0.53666	14.35843	3.62775
1759.714	18.90702	-0.97807	14.50504	2.89560
1763.725	17.63053	-0.87427	12.94448	4.21013
1767.717	17.80839	-1.20163	14.73091	3.19139
1771.716	17.94378	-1.41625	15.37681	3.25811
1775.714	19.29836	-0.55851	14.43780	3.18534
1779.717	19.27922	-1.02514	14.32549	3.47368
1783.713	17.64331	-0.74047	14.39329	2.82274
1787.715	19.01388	-1.78781	13.94130	3.89655
1791.717	19.12149	-0.25300	14.40409	3.37474
1795.716	17.79045	-0.40942	13.99641	3.92972
1799.713	18.49829	-1.54638	14.18874	2.95151
1803.717	19.02176	0.02976	15.09400	4.14555
1807.719	18.49019	-0.45390	14.65881	3.85543
1811.716	18.71492	-1.91504	14.53514	3.88347
1815.729	18.39125	0.62633	14.45537	4.38525
1819.720	18.19681	-0.67478	14.57741	3.77696
1823.715	18.71198	-2.24797	14.63669	2.25457
1827.731	18.52043	0.18393	14.49995	4.30391
1831.717	18.34529	-1.03695	14.66380	3.72294
1835.716	17.92547	-0.15987	14.32493	4.21426
1839.712	18.61245	-1.06486	14.60467	4.27612
1843.712	18.13398	-0.66865	14.43617	3.87972
1847.720	18.28931	-0.03782	14.50656	4.23313
1851.717	18.48356	-1.17822	14.55283	4.49945
1855.713	18.35835	-1.45805	15.29767	4.15325
1859.717	18.55637	-0.29892	14.23830	4.37699
1863.715	16.15740	-1.11023	14.01139	4.07410
1867.717	15.87935	0.05000	12.43731	3.82842
1871.712	15.06271	-0.31234	12.45509	3.52426
1875.718	13.85763	-1.73721	9.50846	3.57620
1879.715	13.73495	-0.77256	10.65386	3.27207
1883.716	12.03790	-1.97284	9.43272	3.03163
1887.732	10.64549	0.28302	9.04096	0.49835
1891.738	11.19132	-1.86211	8.37317	2.65419
1895.716	11.01106	-2.23924	8.18356	0.32326
1899.709	9.63788	-1.60251	6.32306	1.57736
1903.717	9.20891	-1.71266	6.78463	2.20627
1907.713	10.56572	-2.28806	6.71578	0.65677
1911.714	9.21706	-2.37663	6.64800	0.58591
1915.711	8.97741	-2.41306	6.80436	0.35624
1919.715	5.33972	-3.91502	7.11132	-0.10874
1923.713	8.92047	-2.89006	7.03347	-0.31185
1927.716	8.94292	-2.44436	7.03738	-0.09658
1931.715	8.77339	-4.33201	6.82068	-0.27950
1935.714	8.55064	-3.45925	6.65982	0.18040
1939.713	8.72425	-2.55167	6.87802	1.03382
1943.715	8.69343	-2.26592	6.76075	0.61992
1947.707	8.63214	-2.40872	6.76576	0.15963
1951.738	5.96161	-3.32724	6.94271	0.29943
1955.717	8.69380	-2.27193	6.89201	0.03964
1959.712	7.91614	-2.70257	6.68900	-0.09712
1963.714	7.77108	-4.01554	6.83868	0.09583
1967.711	4.54543	-3.23927	6.65605	0.24667
1971.716	8.58466	-3.06806	6.79976	0.15491
1975.713	8.62797	-2.85822	6.53421	0.21357
1979.713	8.82119	-3.17280	6.87694	0.28057
1983.710	2.45978	-5.12663	6.89319	0.29411
1987.710	8.90737	-1.05055	6.92956	0.56628
1991.714	9.38883	-1.70419	6.99372	0.67301
1995.706	8.72044	-3.79764	6.95536	0.01381
1999.716	8.54219	-3.42458	6.56493	0.15688
2003.711	9.16946	-3.03650	9.10156	0.24678
2007.715	10.54385	-3.06338	6.89700	-0.81583
2011.709	10.76925	-2.68666	7.08006	0.14248
2015.721	8.95387	-3.35934	7.41970	0.12643
2019.733	9.66277	-2.85150	7.18648	0.89077
2023.714	10.33447	-2.08845	7.79663	0.03235
2027.710	9.86693	-1.54373	7.48285	0.66245
2031.710	9.51285	-3.67482	7.18648	0.11407
2035.713	8.75342	-2.51034	7.43588	0.09610
2039.713	8.59199	0.22374	7.54962	0.53547
2043.709	4.34635	-3.71187	7.43513	-0.39658
2047.709	8.38692	-3.87722	7.26898	0.44415
2051.713	10.05676	-2.05738	7.56913	-0.11873
2055.714	9.78749	-2.30107	7.45684	0.22655
2059.711	5.66069	-3.96825	7.40499	0.48309
2063.714	9.11467	-2.28237	7.62818	-0.20957
2067.712	10.08832	-1.43961	7.66636	-0.70841
2071.713	9.48767	-3.48657	7.62735	-0.56791
2075.711	8.77514	-2.89252	7.26845	-0.13180
2079.712	3.13665	-3.76134	7.35717	0.27471
2083.708	10.21144	0.92803	7.60670	-0.47134
2087.713	9.94185	-3.45885	8.83066	-0.05483
2091.714	7.31740	-2.06593	7.91862	-1.47363
2095.718	5.18483	-2.63042	7.34016	-0.72173
2099.710	9.70415	-1.87747	7.77705	-0.41936
2103.709	10.15127	-1.11835	7.33256	-0.06714
2107.765	9.52285	-1.03537	7.72076	-0.20775
2111.715	6.58014	-3.19712	7.65705	0.08849
2115.708	4.61765	-3.43405	7.23880	0.20046
2119.708	10.22764	-3.12958	7.60158	-0.07633
2123.713	9.04309	-2.12921	7.53535	0.25809
2127.709	8.42425	-2.00374	7.72909	0.18987
2131.710	6.82792	-2.52536	7.69539	0.12756
2135.705	4.44812	-3.56377	7.46892	0.09897
2139.711	9.99012	-2.43400	7.17196	0.01127
2143.714	10.20760	-1.64183	7.46748	0.22386
2147.706	7.96539	-0.78713	6.50998	0.12690
2151.712	8.71889	0.30363	5.96684	0.36738
2155.705	4.23169	0.62390	4.65437	0.42369
2159.710	4.70444	6.09511	3.67897	1.35781
2163.706	5.66602	0.94409	3.47769	0.24176
2167.712	3.83127	1.00649	3.33995	0.48276
2171.709	4.33564	0.92285	4.37428	0.61186
2175.711	4.26778	0.04807	3.41384	1.32254
2179.713	6.73382	-0.76716	3.48059	1.12635
2183.708	4.93849	0.32307	3.27907	1.29377
2187.709	3.63522	-0.15286	3.45435	0.83985
2191.708	3.99344	1.25005	6.56013	1.39271
2195.707	3.33784	1.27180	3.20162	3.48451
2199.583	4.19617	3.04877	3.16483	1.29027
2203.585	6.46765	-0.94583	2.89980	1.01234
2207.588	4.55329	-0.29962	2.93168	1.41783
2211.583	3.32981	0.63968	2.61001	1.42561
2215.585	3.77004	1.69697	3.01004	2.37769
2219.579	3.97469	2.46361	2.90005	1.58465
2223.584	3.87564	2.08005	2.80793	1.17756
2227.589	4.00759	-1.29510	3.05197	0.92178
2231.585	3.93359	-0.15747	3.33305	0.88296
2235.582	7.17534	-0.28182	2.82489	1.81929
2239.586	7.28024	3.17887	2.71837	1.32851
2243.582	3.25723	6.75127	4.89306	1.34016
2247.585	3.19890	6.74108	6.90434	1.08015
2251.577	1.38773	5.11813	3.11126	2.13153
2255.587	2.82878	6.08760	3.01816	1.60985
2259.582	0.61913	6.41912	3.06840	1.13567
2263.584	6.86388	6.34367	3.56561	1.50059
2267.589	4.17615	6.12536	3.42920	1.21629
2271.585	2.48076	5.83625	3.14884	1.58734
2275.581	2.37657	4.76429	3.50667	1.41845
2279.579	2.66548	5.70214	3.77090	1.08881
2283.581	-1.17813	8.71022	5.24530	1.87451
2287.583	1.75399	6.42024	3.81983	1.65959
2291.592	1.92585	5.31932	3.89854	0.61659
2295.587	1.99781	3.05148	3.14677	1.64025
2299.583	2.21373	2.73626	3.62190	1.46816
2303.582	6.17717	5.13387	2.31304	1.53178
2307.580	2.96958	1.99671	3.13410	1.74764
2311.586	6.33476	1.73831	4.54856	0.64984
2315.585	6.16932	-1.63304	4.94758	0.23744
2319.585	5.27082	-1.42319	5.50405	-3.80131
2323.582	5.70377	-4.69411	6.07562	-1.99578
2327.583	9.47874	-4.47803	7.27409	-4.66159
2331.579	9.85351	-4.11154	7.55759	-6.77276
2335.580	9.84568	-7.30506	7.64237	-4.49760
2339.578	9.13867	-6.93869	7.79425	-6.31770
2343.582	3.10817	-10.51584	9.68966	-8.14045
2347.578	6.59753	-8.04687	9.46945	-10.59355
2351.581	14.98208	-10.23469	9.58702	-10.53699
2355.577	14.33283	-10.31300	9.57032	-10.50950
2359.583	10.28231	-9.69219	8.52960	-10.74941
2363.581	11.86315	-9.99755	9.20448	-10.70737
2367.584	12.51662	-10.93321	8.86030	-11.25409
2371.580	9.70823	-10.72356	8.87333	-10.38679
2375.578	7.40501	-12.11546	9.14036	-11.04339
2379.578	9.08377	-12.39276	9.18402	-10.93425
2383.578	8.54773	-12.01745	9.06843	-11.15170
2387.581	9.12735	-12.13507	9.34609	-10.71082
2391.615	14.65774	-11.92219	9.31361	-10.31091
2395.587	11.88235	-11.26762	9.26735	-8.52293
2399.580	11.26168	-10.13574	12.18369	-11.16831
2403.578	9.91765	-14.84370	12.74029	-11.47587
2407.579	8.93677	-12.11664	8.96237	-10.95539
2411.581	9.15536	-12.82042	9.26766	-10.73092
2415.577	11.22933	-12.28146	9.16271	-10.49600
2419.576	9.53513	-9.59412	9.14636	-10.21840
2423.578	11.08376	-10.94185	8.99559	-9.51616
2427.579	8.44844	-9.80646	9.54018	-11.65713
2431.582	10.31729	-10.35146	9.36254	-12.01087
2435.596	11.32531	-10.57822	9.59725	-11.92422
2439.588	9.17241	-11.62710	9.49849	-10.59916
2443.579	9.50045	-13.08800	8.80830	-10.39666
2447.582	16.39854	-13.08662	9.21021	-10.40308
2451.578	13.08917	-9.40449	9.37141	-10.26889
2455.583	13.39699	-10.62441	9.48784	-11.36814
2459.576	13.61612	-12.18501	9.73699	-11.90215
2463.576	10.59059	-10.28756	10.05592	-11.38556
2467.578	8.57835	-10.95556	9.75541	-10.17949
2471.581	8.96424	-12.57053	9.35367	-10.15033
2475.586	12.90480	-12.94932	8.94644	-10.00555
2479.576	9.56928	-11.40137	9.21933	-10.47712
2483.583	12.45336	-8.75609	9.63657	-11.62242
2487.579	10.47676	-9.65824	9.72843	-11.51110
2491.577	10.13287	-9.45360	9.54375	-10.44505
2495.576	7.85760	-10.31077	9.34152	-10.45145
2499.581	8.49610	-11.01271	10.18938	-10.11465
2503.581	10.51218	-11.37573	9.61325	-9.66035
2507.575	11.10990	-11.85619	8.52052	-9.58546
2511.583	12.71890	-14.24848	8.72452	-10.97653
2515.579	14.31962	-13.25224	8.88484	-10.98741
2519.580	17.54075	-13.97195	9.07511	-10.75720
2523.579	11.47460	-11.88930	9.52497	-11.64250
2527.580	13.80039	-11.47633	8.79182	-11.01628
2531.577	11.58046	-10.42387	9.19969	-10.94314
2535.576	12.33226	-10.15598	8.82919	-11.16481
2539.626	13.31535	-11.07681	8.92471	-11.22320
2543.582	5.81245	-10.87886	9.23802	-11.13015
2547.575	6.45314	-9.91374	8.98332	-11.25462
2551.573	11.44430	-10.32401	8.94181	-11.48288
2555.580	-19.99372	-11.89337	9.05141	-11.54173
2559.582	9.82050	-10.59742	9.76731	-11.67702
2563.580	15.81135	-14.26589	8.79940	-11.35396
2567.586	10.18185	-12.68820	8.42942	-11.16673
2571.576	10.38274	-12.80650	8.93476	-11.51273
2575.577	10.65144	-11.84239	8.86226	-11.71646
2579.581	10.79931	-10.99850	8.88239	-8.56436
2583.576	10.85334	-10.40260	8.87265	-8.77868
2587.577	11.12257	-10.29698	9.53861	-8.64825
2591.579	12.74884	-10.44547	8.60223	-10.29841
2595.575	10.59145	-10.38152	8.44470	-11.03020
2599.584	15.82054	-12.52087	7.82275	-7.98093
2603.578	4.90400	-7.93850	7.91390	-6.73229
2607.579	7.06327	-4.22970	4.25233	-6.92640
2611.578	2.73417	-3.96282	0.47396	-4.82982
2615.572	0.68178	-4.03049	-1.53337	-3.08496
2619.580	-1.09557	-3.82854	-1.93152	-1.32355
2623.577	-3.13123	-2.24135	-6.56145	-0.68336
2627.578	-4.60306	-1.28047	-6.59319	-1.98162
2631.573	-5.82623	-1.49277	-6.51569	-0.51358
2635.578	-6.88825	-1.16006	-8.68439	1.84134
2639.577	-7.29291	0.02997	-7.03020	0.78564
2643.589	-8.11673	1.18155	-9.80004	0.48318
2647.575	-10.05734	0.68097	-10.99264	2.21928
2651.574	-7.58371	-0.11249	-11.31634	1.86072
2655.575	-10.32210	1.82953	-11.82440	2.17523
2659.578	-11.09611	2.10924	-11.51954	2.06915
2663.576	-10.35925	2.18803	-11.82502	2.28433
2667.578	-10.41275	2.21921	-11.64123	1.98645
2671.573	-10.53466	2.41587	-11.26584	2.41409
2675.578	-12.21082	2.19440	-11.37712	2.28036
2679.574	-10.90851	2.29122	-11.50322	4.62128
2683.578	-10.99790	2.11643	-11.36257	2.68021
2687.573	-10.56618	1.25234	-11.73100	1.99793
2691.578	-10.47350	1.43207	-10.08803	2.80414
2695.575	-10.68446	2.19682	-11.20015	2.46330
2699.616	-10.70567	2.37043	-11.76190	2.45653
2703.579	-11.44819	2.27811	-10.80814	2.41694
2707.574	-10.28847	1.55471	-10.28203	2.23659
2711.576	-10.42761	2.08627	-10.64683	2.33851
2715.579	-8.97700	2.21031	-11.76019	2.14496
2719.576	-9.39540	1.58910	-10.86170	3.05757
2723.577	-10.24319	2.01423	-8.68002	3.80326
2727.578	-9.38738	2.47755	-11.51211	2.35152
2731.588	-9.67119	1.59582	-10.83429	3.36616
2735.577	-9.61945	1.53178	-8.71162	2.34546
2739.576	-10.06580	2.32511	-11.16617	2.80086
2743.573	-9.78120	1.64418	-11.02423	3.37344
2747.576	-9.11244	1.75600	-9.97881	2.77476
2751.573	-9.53002	1.50857	-11.41595	2.20977
2755.577	-9.50469	1.64761	-11.39744	2.86903
2759.575	-9.86604	2.29102	-10.71585	3.13275
2763.610	-9.84332	1.51504	-11.07396	2.59533
2767.583	-9.42100	1.70271	-11.41056	2.93119
2771.577	-9.60473	1.57836	-10.95538	3.10062
2775.573	-9.57445	1.80199	-11.24275	2.48220
2779.576	-9.60010	2.76778	-11.59580	3.38121
2783.573	-9.76956	1.45195	-11.43460	2.97911
2787.575	-9.48422	1.83369	-11.29830	2.71948
2791.572	-9.84127	1.96232	-11.19640	2.88050
2795.573	-10.23418	2.37198	-9.92615	3.00907
2799.574	-9.87283	2.45931	-11.68698	2.75115
2803.569	-10.19668	1.97871	-11.79463	2.48489
2807.580	-9.76191	2.30179	-11.26266	2.26220
2811.579	-9.72274	1.55235	-11.71042	2.61365
2815.575	-9.63450	2.29753	-10.44725	2.35357
2819.576	-10.28332	2.65925	-11.19370	2.47803
2823.575	-10.15915	2.27560	-10.62020	2.88676
2827.606	-9.96431	2.33605	-11.91189	3.70007
2831.588	-9.62150	2.58526	-10.45334	2.75749
2835.586	-10.14059	1.69015	-10.53022	2.74912
2839.576	-9.74374	2.59681	-10.74513	3.09793
2843.568	-10.21250	2.82708	-10.30190	2.77840
2847.576	-10.15737	1.30487	-10.73143	2.61394
2851.579	-10.30072	2.55710	-10.41539	2.75945
2855.575	-10.40973	1.73667	-10.62032	3.10653
2859.568	-10.31828	2.88149	-10.87137	2.92177
2863.574	-10.43352	1.28118	-10.41738	2.95227
2867.573	-10.42588	2.63858	-10.61728	2.68474
2871.573	-10.30711	2.49077	-10.11841	2.43621
2875.573	-10.77701	2.34248	-10.53871	2.92266
2879.576	-10.31386	2.05485	-10.34148	2.46310
2883.573	-10.50961	2.09096	-10.74213	3.26533
2887.574	-10.98487	2.89526	-11.64304	2.25413
2891.579	-12.54736	2.83753	-13.51274	2.82219
2895.574	-13.51217	2.93646	-14.44983	2.99661
2899.570	-13.12653	2.74772	-15.20808	3.21742
2903.586	-10.88951	3.80929	-14.86145	3.17559
2907.574	-13.37730	4.90948	-14.94101	2.66194
2911.574	-14.96733	4.66624	-14.75008	2.73509
2915.569	-11.00391	3.76285	-13.49622	2.82328
2919.574	-10.82351	2.81003	-14.74119	3.62812
2923.569	-13.42618	2.64066	-14.36597	2.83584
2927.577	-10.86232	3.62035	-12.76222	3.00351
2931.570	-11.64347	4.17779	-14.56897	3.00944
2935.580	-13.65999	3.70736	-14.22307	2.94578
2939.577	-12.54713	4.13845	-12.55916	2.89840
2943.573	-10.85909	4.08057	-13.20985	2.94204
2947.570	-12.56978	4.22144	-14.40556	2.64508
2951.580	-12.71649	4.30667	-13.80917	2.80770
2955.571	-12.71479	4.11477	-12.34991	2.89678
2959.568	-12.17935	4.05849	-13.94602	2.67193
2963.574	-12.58205	3.98838	-14.02351	2.46466
2967.578	-11.82418	3.97108	-13.95463	2.56098
2971.572	-12.21587	3.71644	-14.12114	2.84319
2975.580	-12.24796	3.91080	-13.55886	2.67873
2979.574	-12.07797	3.70276	-13.10881	2.64155
2983.571	-12.65344	3.68659	-14.25928	2.70623
2987.565	-12.67268	3.66959	-14.32696	2.65523
2991.574	-12.42628	4.09627	-14.39746	2.95084
2995.570	-12.36390	4.00912	-13.77616	2.62323
2999.569	-12.38855	3.82345	-14.47806	2.56662
3003.573	-12.19176	3.75086	-14.60088	2.64717
3007.571	-12.29746	3.85340	-12.76274	2.63314
3011.567	-12.41731	3.96995	-13.26598	2.80803
3015.573	-12.49349	3.92489	-12.70012	3.14347
3019.579	-12.29156	3.57970	-13.28536	3.31790
3023.571	-12.36099	3.44225	-13.86273	3.21550
3027.568	-12.67409	4.05078	-13.69982	3.36878
3031.571	-12.26548	3.58683	-14.62986	3.41424
3035.569	-11.68538	0.57166	-14.48595	3.58478
3040.097	-12.66873	3.43808	-14.06413	3.58452
3043.577	-12.51035	3.27912	-14.37806	3.86992
3047.569	-12.64390	3.86140	-14.46424	2.31570
3051.566	-12.50004	3.00576	-14.65697	3.32173
3055.447	-12.73044	3.09696	-14.59596	3.40116
3059.444	-12.67230	2.70489	-14.31999	3.55688
3063.447	-12.86159	3.05098	-14.47871	3.56287
3067.443	-12.96526	2.87564	-14.33723	3.54925
3071.447	-12.85515	3.00132	-14.42374	3.57755
3075.444	-12.88803	3.17842	-14.45072	2.47879
3079.448	-12.94620	3.26259	-14.64029	2.97729
3083.447	-12.94565	2.83050	-14.97576	2.59232
3087.444	-13.74147	3.16878	-14.62287	3.16662
3091.440	-12.92095	1.83198	-14.65841	3.42319
3095.448	-12.96552	1.25811	-14.61889	3.61189
3099.443	-13.00907	1.55135	-14.58052	3.83181
3103.446	-12.66559	1.35242	-14.14357	3.71824
3107.449	-12.92531	2.92019	-14.09044	3.42726
3111.445	-12.92913	3.18259	-13.48817	3.06746
3115.444	-12.91416	3.26846	-14.22521	2.20903
3119.441	-12.97780	3.29070	-13.86893	2.42588
3123.446	-12.98136	3.41681	-14.37534	3.09770
3127.443	-12.94681	3.66932	-13.72552	3.19972
3131.444	-12.87893	3.58814	-14.30850	3.13792
3135.441	-12.88374	3.59516	-14.08692	3.25574
3139.446	-13.20997	3.66792	-14.12611	3.14600
3143.444	-13.06068	3.63579	-14.20460	3.05946
3147.448	-13.09440	3.72077	-14.13612	3.07304
3151.446	-13.09320	3.68239	-13.96863	3.18025
3155.444	-13.03268	3.78413	-13.89982	3.17028
3159.447	-13.17755	3.65634	-13.91848	3.26858
3163.442	-13.07081	3.60570	-15.07829	3.14052
3167.446	-13.17358	3.48241	-14.13862	3.22099
3171.444	-13.22902	3.28890	-13.93104	3.09786
3175.496	-13.19190	2.67728	-13.75392	3.20636
3179.446	-12.98921	2.77725	-14.01162	3.20372
3183.440	-13.23140	2.86653	-14.23615	2.66159
3187.447	-13.23786	2.49966	-13.57276	3.28467
3191.449	-13.22973	2.93473	-14.22678	3.37577
3195.442	-13.14557	3.34066	-13.85428	3.33253
3199.440	-13.23130	3.37536	-14.03615	3.54074
3203.442	-13.32522	2.86863	-8.95232	-1.11017
3207.442	-13.14065	2.60643	-11.87558	3.03774
3211.438	-13.63463	2.59312	-11.49969	3.48291
3215.444	-13.52041	4.63143	-14.53579	3.48012
3219.441	-16.69434	5.49098	-14.46938	7.38236
3223.443	-17.23007	5.72573	-9.18199	10.72170
3227.437	-16.58138	8.41180	2.96292	14.18401
3231.450	-19.99149	-12.07759	NaN	NaN
3235.440	-19.99260	-12.07751	-16.16859	0.02236
3239.444	-19.99300	-12.07748	NaN	NaN
3243.469	-19.99317	-12.07746	NaN	NaN
3247.441	-19.99331	-12.07745	NaN	NaN
3251.443	-19.99337	-12.07745	NaN	NaN
3255.444	-19.99344	-12.07744	NaN	NaN
3260.695	2.90681	14.13845	NaN	NaN
3271.450	-19.99348	-12.07744	NaN	NaN
3275.451	NaN	NaN	NaN	NaN
3279.443	NaN	NaN	NaN	NaN
3283.442	NaN	NaN	NaN	NaN
3287.442	NaN	NaN	NaN	NaN
3291.443	NaN	NaN	NaN	NaN
3295.450	NaN	NaN	NaN	NaN
3299.444	NaN	NaN	NaN	NaN
3303.444	NaN	NaN	NaN	NaN
3307.442	NaN	NaN	NaN	NaN
3311.478	NaN	NaN	NaN	NaN
3315.455	NaN	NaN	NaN	NaN
3319.444	NaN	NaN	NaN	NaN
3325.322	NaN	NaN	NaN	NaN
3329.361	NaN	NaN	NaN	NaN
3335.448	NaN	NaN	NaN	NaN
3339.438	NaN	NaN	-11.11858	8.78279
3343.439	NaN	NaN	NaN	NaN
3347.435	NaN	NaN	NaN	NaN
3351.450	NaN	NaN	NaN	NaN
3355.446	NaN	NaN	NaN	NaN
3359.440	13.57741	4.74864	NaN	NaN
3363.578	15.84658	4.71459	NaN	NaN
3367.756	NaN	NaN	NaN	NaN
3372.010	18.51465	4.13523	NaN	NaN
3376.074	18.64487	2.02638	NaN	NaN
3380.963	17.80868	1.88022	NaN	NaN
3384.870	20.72959	0.78773	NaN	NaN
3388.741	20.65075	1.43671	NaN	NaN
3392.787	20.91058	0.88563	NaN	NaN
3396.739	21.10782	1.23522	NaN	NaN
3400.777	20.85718	0.97739	NaN	NaN
3404.822	18.92626	0.78988	NaN	NaN
3408.943	18.91613	1.02544	NaN	NaN
3412.937	18.78559	0.73414	NaN	NaN
3416.982	18.98777	0.43307	NaN	NaN
3421.023	16.51121	0.67194	NaN	NaN
3424.984	13.41004	2.07689	NaN	NaN
3428.878	14.00162	0.86535	NaN	NaN
3432.948	13.83046	0.87014	NaN	NaN
3436.992	13.89547	1.96736	NaN	NaN
3441.145	12.96651	2.34174	NaN	NaN
3445.252	13.82068	2.44994	NaN	NaN
3450.257	13.22058	3.57686	NaN	NaN
3454.381	14.00700	2.93650	NaN	NaN
3458.442	13.34246	3.18609	NaN	NaN
3462.517	13.86401	2.29776	NaN	NaN
3466.557	13.96297	2.55023	NaN	NaN
3470.579	12.52925	2.84250	NaN	NaN
3474.663	13.21100	2.44882	NaN	NaN
3478.969	13.26702	2.29392	NaN	NaN
3483.132	12.81330	2.30817	NaN	NaN
3487.346	13.41364	1.84173	NaN	NaN
3491.558	15.44347	1.75740	NaN	NaN
3495.838	12.66169	2.58895	NaN	NaN
3500.058	12.98369	2.60118	NaN	NaN
3504.129	13.39499	2.59281	NaN	NaN
3508.152	13.04601	2.64908	NaN	NaN
3512.191	13.63302	2.27815	NaN	NaN
3517.115	13.59267	2.50844	NaN	NaN
3521.487	14.21822	2.22394	NaN	NaN
3525.531	14.17796	2.24305	NaN	NaN
3529.579	14.52644	2.02222	NaN	NaN
3533.530	14.78702	2.29831	NaN	NaN
3537.550	14.32537	2.29355	NaN	NaN
3541.764	14.04112	2.14775	NaN	NaN
3545.893	14.27988	2.05834	NaN	NaN
3549.998	13.93062	1.96754	14.83316	8.21061
3554.184	14.15983	1.88101	14.81017	7.75679
3558.352	13.78272	1.84513	14.44585	7.83379
3562.542	13.46395	1.99812	14.01232	7.80937
3566.780	12.92274	2.15721	13.34585	7.70923
3571.096	12.48010	2.45933	12.34209	7.61719
3575.406	13.00193	2.44947	12.02290	7.51154
3579.661	16.68623	0.31258	11.57450	7.41415
3584.632	13.53709	2.91960	11.44017	7.30633
3588.726	18.53578	0.60434	11.22179	7.13959
3593.073	17.42800	0.59855	10.76906	7.06841
3597.239	17.58316	0.83606	10.66325	6.82580
3601.358	13.55402	2.72653	10.30692	6.87403
3605.467	14.02912	2.61106	10.33404	6.82461
3609.596	13.90097	3.03188	10.07483	6.94336
3613.682	13.91217	2.68223	10.23197	6.81501
3617.871	13.88764	2.57672	10.05009	6.77414
3622.060	13.24783	2.29686	10.32966	6.56225
3626.325	13.42486	1.26286	10.28830	6.32869
3630.466	14.05128	1.93935	10.04555	6.20871
3634.608	13.77193	2.45797	10.28501	5.66414
3638.733	14.07938	2.68065	10.47288	5.08067
3643.105	13.65655	2.83853	10.74132	4.30557
3647.386	13.51490	2.22334	10.85148	6.53287
3652.508	13.57867	2.31063	11.05517	5.85223
3656.671	13.33504	2.01248	10.95679	5.46565
3660.973	13.34105	2.12823	10.77562	5.54544
3665.286	13.42639	2.29420	10.87833	5.36458
3669.463	13.51804	1.91350	10.78027	5.06641
3673.656	13.72399	2.44223	10.85540	5.12030
3677.870	13.58259	2.36738	11.18093	5.30508
3682.054	13.49052	2.19344	10.88922	5.74079
3686.188	13.56240	2.10608	10.91755	6.06263
3690.330	13.51426	2.12511	10.96181	5.66164
3694.479	13.30954	2.03696	11.01180	5.59918
3698.502	13.60732	2.19443	10.72884	5.54042
3702.786	14.07865	1.76054	10.75114	5.29528
3706.954	14.26779	2.03456	10.68420	4.96299
3711.064	14.20595	2.43853	11.95710	5.10615
3715.222	14.14735	2.42453	NaN	NaN
3723.437	13.73325	2.21158	NaN	NaN
3727.731	14.03933	2.07395	NaN	NaN
3732.008	13.17252	2.05485	NaN	NaN
3860.398	NaN	NaN	NaN	NaN
3927.871	14.24091	2.46051	10.62667	5.00232
3931.981	14.34070	2.41229	10.57663	5.17076
3935.586	13.80325	2.38280	10.67770	5.19696
3939.561	14.17262	2.28601	10.65616	5.23121
3943.553	13.81338	2.13092	10.65055	3.01088
3947.560	13.96916	-0.60650	10.74381	3.60619
3951.600	13.50697	1.41712	10.69163	0.68662
3955.555	13.33201	-2.04373	10.81930	2.73660
3959.557	13.40814	-0.73802	10.61924	-0.87759
3963.555	13.37963	-4.66210	10.64305	0.02928
3967.557	9.13262	-2.90495	10.56872	-2.14162
3971.550	13.43460	-5.11022	10.57155	-0.82224
3975.565	10.50930	-5.84344	9.82563	-2.71740
3979.557	13.53115	-6.20936	10.24685	-5.23824
3983.557	10.36944	-7.88238	10.16302	-5.06553
3987.550	11.28827	-9.03468	10.19582	-4.61596
3991.560	-19.99372	-12.07738	9.28074	-5.24073
3995.554	-19.99372	-12.07740	8.60759	-5.65980
3999.557	10.75624	-8.39781	7.64240	-7.89711
4003.570	10.60006	-9.41618	7.31394	-7.98885
4007.552	10.78877	-10.49533	7.21940	-7.70213
4011.571	16.38929	-10.71221	9.59206	2.58568
4015.561	-19.99372	-12.01178	NaN	NaN
4019.556	-19.99372	-12.02796	NaN	NaN
4023.555	-19.99372	-12.03792	NaN	NaN
4027.555	-19.99372	-12.04473	NaN	NaN
4031.427	-19.99372	-12.04971	NaN	NaN
4035.440	-19.99372	-12.05083	NaN	NaN
4039.429	-19.99372	-12.05208	NaN	NaN
4043.626	-19.99372	-12.05572	NaN	NaN
4047.863	-19.99372	-12.05869	NaN	NaN
4052.065	-19.99372	-12.06557	NaN	NaN
4056.216	NaN	NaN	NaN	NaN
4060.361	NaN	NaN	NaN	NaN
4065.424	NaN	NaN	NaN	NaN
4069.618	NaN	NaN	NaN	NaN
4073.591	NaN	NaN	NaN	NaN
4077.831	NaN	NaN	11.00415	-5.54837
4081.960	NaN	NaN	10.55188	-5.64425
4086.013	NaN	NaN	10.15081	-6.12955
4090.104	NaN	NaN	10.54171	-6.54837
4094.292	NaN	NaN	10.26333	-8.16230
4098.395	NaN	NaN	11.00599	-7.52369
4102.533	NaN	NaN	10.68329	-6.80725
4106.576	NaN	NaN	11.00367	-6.81496
4110.650	NaN	NaN	11.22606	-6.96904
4114.847	NaN	NaN	11.42875	-6.18876
4119.010	NaN	NaN	11.39616	-6.94519
4121.498	NaN	NaN	11.25798	-7.01776
4124.109	NaN	NaN	11.69778	-7.35098
4127.425	NaN	NaN	11.75629	-7.40717
4131.434	NaN	NaN	11.68691	-7.47912
4135.431	NaN	NaN	11.63049	-7.60411
4139.428	NaN	NaN	11.46235	-7.84627
4143.432	NaN	NaN	11.65873	-8.15453
4147.441	NaN	NaN	11.60523	-8.06074
4151.426	NaN	NaN	10.11050	-6.41292
4155.430	NaN	NaN	9.30186	-6.30149
4159.421	NaN	NaN	9.64786	-6.52766
4163.431	NaN	NaN	9.17476	-6.42708
4167.425	NaN	NaN	8.95879	-6.18844
4171.429	NaN	NaN	9.38209	-6.28865
4175.420	NaN	NaN	8.98177	-6.17464
4179.430	NaN	NaN	8.79274	-6.24808
4183.424	NaN	NaN	8.78156	-6.22163
4187.434	NaN	NaN	8.77431	-6.22730
4191.422	NaN	NaN	8.80321	-6.05522
4195.430	NaN	NaN	8.53668	-5.83882
4199.425	NaN	NaN	8.30600	-6.00354
4203.431	NaN	NaN	8.48180	-6.53539
4207.425	NaN	NaN	8.30405	-6.61843
4211.440	NaN	NaN	8.25331	-6.45723
4215.429	NaN	NaN	7.95322	-6.89533
4219.425	NaN	NaN	7.97030	-6.94353
4223.426	11.23490	-11.68463	7.89444	-7.41271
4227.430	11.00563	-10.79779	7.66087	-7.28678
4231.430	14.61248	-11.99155	10.93536	-8.15471
4235.429	14.56037	-10.83914	10.98509	-8.71952
4239.427	15.25191	-11.05600	8.29657	-6.89533
4243.425	14.47957	-11.04110	8.43571	-6.48351
4247.423	13.73111	-10.86491	8.47478	-7.05689
4251.430	13.01018	-10.92474	8.63813	-6.95655
4255.427	11.69709	-10.87166	8.94341	-7.03040
4259.430	12.64276	-8.12478	9.02401	-6.80542
4263.420	12.78049	-8.73273	9.03921	-6.95138
4267.437	11.77819	-10.50241	8.89887	-6.82415
4271.439	11.68860	-12.18335	8.74947	-6.67047
4275.428	9.23364	-10.94634	8.63301	-6.46479
4279.424	8.84053	-10.47832	11.02720	-4.22095
4283.426	9.56730	-9.93788	10.85162	-4.09767
4287.431	6.57321	-11.02826	11.06009	-4.11610
4291.425	14.57608	-10.88659	14.65662	-5.03301
4295.430	11.29875	-10.18661	14.14434	-4.32312
4299.419	-19.99372	-11.86969	NaN	NaN
4303.430	10.98671	-10.04448	10.93593	-6.81894
4307.426	8.52132	-11.32323	8.34643	-4.67114
4311.475	13.21940	-7.11515	9.23135	-3.74178
4315.429	13.26058	-8.47162	10.86694	-3.79080
4319.424	11.17295	-3.88424	11.48563	0.65362
4323.427	15.09899	-5.01984	12.68812	-1.58672
4327.431	16.55425	-4.28097	12.82656	1.66986
4331.425	17.92140	-4.01018	14.00421	1.92121
4335.423	17.22126	-0.82673	11.89647	2.67518
4339.427	20.01769	-3.20180	12.73576	3.78458
4343.420	18.29819	-0.80887	12.29173	4.15905
4347.429	16.98071	0.10906	12.14044	3.83171
4351.424	19.53770	-1.85535	12.58512	3.53158
4355.430	18.35314	-0.73197	13.22791	3.32127
4359.420	NaN	NaN	12.70196	3.44645
4363.423	16.81742	-0.50566	12.84019	3.78053
4367.425	17.01208	-0.30591	12.51262	3.86117
4371.420	17.42741	-0.48864	12.63487	3.84869
4375.427	16.17548	0.79517	12.57529	3.85393
4379.422	16.09474	0.10462	12.32665	4.05715
4383.426	16.49250	-0.07880	12.16643	4.08489
4387.417	15.93100	0.25950	11.75196	3.97147
4391.429	15.76281	0.47302	12.02019	3.89578
4395.426	15.55402	0.71175	12.15621	3.66725
4399.418	15.16551	0.50940	12.56493	3.96426
4403.422	14.70240	0.59916	12.61060	3.72293
4407.422	14.86289	0.47717	12.61963	3.79832
4411.425	14.56488	0.59054	12.36769	3.75080
4415.422	15.66629	0.73451	12.47723	3.79271
4419.420	15.63131	0.54064	12.53918	3.79047
4423.422	15.86707	0.19827	12.61363	3.75304
4427.425	15.83181	0.57261	12.61568	3.71273
4431.422	15.93297	-0.09362	12.56460	3.79809
4435.436	15.58235	0.29391	12.59231	3.86577
4439.431	15.32248	0.10303	12.61677	3.90076
4443.422	15.47337	0.31478	12.53552	3.83540
4447.425	18.09951	-0.26373	12.49353	3.96536
4451.422	18.21647	-0.31348	12.42912	3.96774
4455.425	17.25003	-0.44894	12.49628	3.94462
4459.420	17.50232	-0.64889	12.58564	4.00039
4463.420	17.89610	-0.60070	12.58500	3.98138
4467.421	16.00227	1.13677	12.72900	3.99304
4471.424	16.18725	-0.49228	12.68312	4.03554
4475.424	17.48349	-0.22578	12.80381	4.01971
4479.430	16.32008	0.29595	12.83359	3.98992
4483.420	17.01206	0.27029	12.81403	3.99936
4487.421	16.90559	-0.01992	12.81915	4.00090
4491.418	16.83484	-0.32753	12.95918	3.95037
4495.425	16.38451	0.08032	12.93705	3.90917
4499.421	16.45635	0.03277	12.93745	3.90627
4503.424	16.69188	-0.00395	12.93113	3.86673
4507.419	16.52857	0.10036	12.94735	3.89343
4511.436	16.34800	0.19798	12.84048	3.80853
4515.425	15.95023	0.08064	12.79883	3.71178
4519.428	16.37266	0.27916	12.72001	3.58339
4523.448	16.24919	0.23852	12.69993	3.42288
4527.422	16.06064	0.21814	12.58971	3.42153
4531.418	15.96466	0.08866	12.73606	3.44097
4535.424	16.28352	0.26824	12.45426	3.28517
4539.431	16.01997	0.35702	12.54218	3.50048
4543.420	15.77816	0.51655	12.80735	3.45511
4547.425	15.59812	1.04855	13.01385	3.32432
4551.423	15.68592	0.34292	12.56018	3.64825
4555.415	15.62938	0.48018	12.29308	4.53232
4559.424	15.73775	0.38727	12.35377	4.58451
4563.426	15.95812	0.28818	12.51035	4.93062
4567.424	15.99259	0.16454	12.33501	4.85906
4571.416	16.02266	0.07268	12.31386	4.76912
4575.424	16.18567	0.00251	12.15336	4.89947
4579.420	16.26792	0.02657	12.06330	4.83598
4583.416	16.14242	0.19167	12.08259	4.93068
4587.420	16.25274	0.18884	12.05983	4.96498
4591.418	16.52704	-0.59428	12.04690	4.88019
4595.417	16.31930	-0.17731	12.07146	4.86003
4599.417	16.28475	-0.06931	12.05983	4.76138
4603.426	16.45071	-0.38786	12.13811	4.79391
4607.419	16.64389	-0.48141	12.02976	4.75006
4611.431	16.30920	0.04178	11.97432	4.74756
4615.421	16.31445	0.06697	12.21814	4.72904
4619.413	16.36996	0.25511	12.10839	4.67770
4623.423	15.90213	0.32226	12.25806	4.63814
4627.418	16.14783	0.35192	12.30559	4.68653
4631.422	15.95323	0.44587	12.23478	4.64212
4635.413	16.04281	0.48822	12.26578	4.75291
4639.422	16.27122	0.44656	12.32340	4.64889
4643.423	16.03600	0.60874	12.49273	4.39168
4647.422	15.71163	0.64212	12.47558	3.73558
4651.418	15.99881	0.78933	12.48887	4.17720
4655.419	15.83175	0.99821	12.66552	4.13274
4659.420	15.79604	1.17443	12.63090	4.18245
4663.415	14.15379	1.79320	12.46375	3.54450
4667.422	15.71496	1.00383	12.65982	3.96492
4671.418	17.12197	0.75146	15.30956	3.69402
4675.427	17.90741	0.18048	15.27538	3.67862
4679.447	19.35441	-0.19635	15.07183	3.79584
4683.424	18.07959	-0.91540	14.77804	3.73370
4687.421	18.10388	-1.82664	14.93177	3.63892
4691.429	18.23942	-1.27378	14.78331	3.80489
4695.420	18.82702	-1.20015	14.48648	3.89115
4699.421	19.24310	-1.02532	14.79050	3.77044
4703.419	19.53454	-1.11490	14.74655	3.76271
4707.422	19.19986	-0.45863	14.57959	3.95233
4711.415	19.36815	-0.52332	14.54360	3.97205
4715.423	19.40628	-0.70135	14.20775	4.22863
4719.419	19.32431	-0.73549	14.17829	4.28347
4723.420	19.38551	-0.68982	14.46952	4.50664
4727.420	19.46901	-0.81666	14.47161	4.72499
4731.424	19.56566	-0.63520	14.35661	4.69308
4735.420	19.40624	-0.51055	14.56067	4.78606
4739.415	19.20854	-0.43235	14.62589	4.73634
4743.421	18.07636	0.11497	14.61689	4.85623
4747.434	17.49128	0.58030	14.49392	4.97976
4751.459	18.76984	0.17260	14.75189	4.93428
4755.416	19.54369	-0.23701	14.76438	4.97369
4759.417	19.39006	-0.05569	14.72014	5.02809
4763.414	18.91315	-0.16112	14.75384	4.85323
4767.418	19.59765	-0.34227	14.79795	3.97570
4771.420	18.87828	-0.33331	14.73771	3.86375
4775.414	19.27086	-0.06026	14.70228	3.73087
4779.416	18.81640	-0.10493	14.60298	3.99716
4783.418	18.18866	0.01858	14.51649	4.52034
4787.415	17.81313	0.26537	14.22475	4.44418
4791.413	17.96208	0.10786	14.05845	4.65909
4795.414	19.11606	-0.77379	14.00646	4.61360
4799.417	18.81740	-1.12338	14.29708	4.74789
4803.418	18.65643	-1.01259	14.13496	4.78914
4807.413	18.21327	-0.23559	14.39552	4.91174
4811.436	18.08901	0.15016	14.30976	4.81226
4815.411	22.77410	-1.96383	14.55449	4.62902
4819.414	21.11650	-1.24198	14.67165	4.66688
4823.426	20.18913	-0.80438	14.30981	4.83963
4827.428	19.43280	-1.08473	14.93775	4.66747
4831.418	19.12240	-0.79177	15.20496	4.43911
4835.413	18.76435	-0.80069	14.97263	4.34744
4839.414	18.86006	-0.67767	14.68942	4.50087
4843.423	19.41123	-0.60478	14.75936	4.47930
4847.423	19.12533	-0.56556	14.94173	4.21725
4851.419	18.76137	-0.19743	14.65344	4.23300
4855.418	18.57356	0.04824	14.49467	4.36898
4859.417	18.32219	0.00894	14.74240	4.16892
4863.417	18.58195	0.03736	14.36334	4.18083
4867.412	18.55517	0.24641	14.63448	4.08295
4871.419	18.89932	-0.17533	14.71723	3.90816
4875.415	19.43986	-0.17774	14.55616	3.90092
4879.417	18.74906	0.41451	14.52714	3.93186
4883.417	18.75542	0.36496	14.43757	3.76796
4887.290	18.37254	0.53113	14.43189	3.82285
4891.295	18.54963	0.41853	14.44190	3.74850
4895.291	17.57346	0.79004	14.60181	3.72001
4899.294	17.60540	0.90532	14.79841	3.68839
4903.290	18.09946	0.62065	14.66113	3.65063
4907.289	18.64340	0.27517	14.65395	3.56206
4911.307	18.57713	0.55594	14.72956	3.58364
4915.292	18.01105	0.94992	14.61550	3.66535
4919.292	17.83756	0.72254	14.65785	3.70072
4923.290	18.36879	0.49386	14.67346	3.61205
4927.293	18.10489	0.72560	14.68178	3.57889
4931.286	18.27188	0.75803	14.76502	3.46090
4935.293	18.38092	0.67407	14.76477	3.46991
4939.289	17.65674	0.57137	14.74240	3.39256
4943.298	20.50354	0.12503	14.68658	3.35412
4947.306	18.29130	0.48458	14.63397	3.34354
4951.322	18.68684	0.43994	14.53372	3.29939
4955.299	17.86706	0.63743	14.73996	3.33800
4959.289	17.66188	0.56202	14.79303	3.32802
4963.285	18.75291	0.18970	14.68570	3.34771
4967.291	16.90682	0.69427	14.44131	3.14376
4971.289	17.80094	0.54694	13.37784	3.48794
4975.288	13.72317	2.64777	11.78443	3.27765
4979.285	13.36716	2.46585	10.01522	3.59084
4983.296	12.93521	2.61848	9.82563	3.66768
4987.289	10.05154	2.68967	9.62902	3.34863
4991.291	10.07940	2.58260	9.23282	3.88843
4995.285	9.70492	2.35884	7.53459	3.88431
4999.292	7.93111	1.18140	6.69601	3.99777
5003.287	7.88317	2.29952	6.47960	3.91894
5007.286	5.19081	2.22186	4.39437	4.07892
5011.289	4.66674	2.53567	4.11211	3.74105
5015.287	5.09524	2.33221	4.05769	3.83876
5019.298	5.25197	2.35495	3.84582	4.05143
5023.299	4.67734	2.20364	3.70833	4.16267
5027.292	3.55018	2.29167	3.49958	4.26415
5031.290	3.01749	2.19966	4.00045	4.33766
5035.282	4.38581	1.79738	3.92823	4.00410
5039.293	5.53663	1.28757	4.10848	3.10101
5043.287	4.90412	1.70548	4.06098	3.36257
5047.287	4.74962	2.44377	4.29789	4.58324
5051.285	3.41619	1.85972	4.09960	4.56322
5055.286	5.12536	1.72996	4.28915	3.63047
5059.288	4.36343	2.05018	4.40744	3.11277
5063.289	7.05205	2.27638	4.18136	3.49707
5067.286	3.97133	2.50051	5.73303	3.48829
5071.294	5.08296	1.78099	6.46012	3.01216
5075.287	4.71930	1.91926	4.49674	3.30674
5079.292	5.04957	1.72549	4.39484	3.21637
5083.291	4.05051	1.61562	6.44439	3.31962
5087.284	5.26224	1.10915	4.74560	2.19895
5091.289	5.16260	1.42009	4.90427	3.43736
5095.281	3.91101	2.80624	4.15831	3.47023
5099.291	4.77917	1.77487	5.13134	3.13092
5103.288	5.15349	1.56704	4.95948	3.28668
5107.292	3.68189	3.56969	4.64280	3.33917
5111.291	3.70309	2.63978	5.86894	3.09666
5115.285	3.63151	1.92794	4.70875	3.42677
5119.285	6.45579	0.82133	4.11159	3.56753
5123.282	5.55167	1.21127	4.45972	2.32284
5127.304	4.82991	1.06088	3.91916	3.61595
5131.291	4.91634	1.75844	4.47701	2.63595
5135.291	3.46736	1.69023	4.12801	3.28955
5139.281	3.88152	1.89185	4.50562	3.09613
5143.295	3.86731	2.43151	4.11824	2.92780
5147.296	5.65346	1.76269	3.90108	3.53095
5151.288	4.20543	1.86148	3.87989	3.40067
5155.349	5.42614	1.04404	4.10866	3.48964
5159.289	4.36469	1.24770	4.01186	3.69546
5163.289	4.10577	1.44159	4.06113	3.50945
5167.285	4.31213	1.86303	4.52700	3.89964
5171.287	5.22948	1.21065	4.10147	3.49142
5175.282	4.12382	2.16808	3.98593	4.67200
5179.288	4.95679	1.36052	4.30722	3.26674
5183.283	4.17099	2.07871	5.77617	3.67238
5187.287	6.46172	1.00098	4.50505	3.41585
5191.284	4.18354	1.77654	5.36646	3.41591
5195.292	4.32636	1.62765	4.50759	3.61638
5199.285	4.37845	1.98265	6.09292	3.22595
5203.287	4.79758	1.81770	4.76206	3.96457
5207.289	6.76217	1.88397	5.90816	3.15374
5211.299	4.89501	1.35760	4.58086	3.42650
5215.285	4.78550	2.34566	4.51226	2.89577
5219.283	4.66097	1.35079	4.55865	3.19748
5223.283	4.25852	3.88093	4.66689	2.74913
5227.285	4.70108	1.78054	4.46788	3.23457
5231.292	6.84402	1.23904	4.52678	3.24621
5235.286	5.95083	1.52101	4.53347	3.16692
5239.283	4.90277	1.92475	4.16653	3.39493
5243.285	3.81049	4.29298	2.82764	3.56598
5247.278	-0.68759	3.96793	0.21700	3.64875
5251.286	0.12357	3.67122	-0.63141	5.14630
5255.283	-1.98583	3.59594	-1.35774	4.46712
5259.285	-3.26052	3.95329	-5.08439	4.50982
5263.281	-2.14910	3.89124	-3.73047	3.75098
5267.301	-3.97378	3.57946	-1.21134	3.55074
5271.288	-2.89265	3.68117	-3.37299	4.11299
5275.292	-4.18494	3.29482	-2.41995	3.50474
5279.290	-2.49753	3.46657	-3.22559	3.71902
5283.284	-3.89155	3.59256	-2.38960	3.71485
5287.286	-3.15788	3.52836	-2.98012	3.68528
5291.286	-3.53958	3.53768	-2.58234	4.58983
5295.285	-2.55799	3.56868	-2.68846	4.11307
5299.277	-3.93473	3.37386	-3.31910	4.43079
5303.287	-1.69974	3.47141	-2.70210	4.36588
5307.282	-4.09419	3.20040	-3.26920	4.65368
5311.282	-3.32004	3.36070	-2.41935	4.50116
5315.295	-3.13588	3.21508	-3.18519	4.01356
5319.284	-1.28874	3.16063	-2.61521	3.62098
5323.285	-1.54879	3.08293	-3.58405	3.45781
5327.297	0.12900	2.49007	-2.96527	4.30493
5331.285	-2.99710	3.07210	-3.23497	3.82671
5335.286	-2.54484	2.71218	-3.03338	4.09554
5339.281	-3.36532	3.58639	-2.18347	4.10833
5343.286	-2.24807	3.50525	-3.34284	4.17802
5347.282	-1.20988	2.54105	-3.29629	5.54764
5351.287	-2.43335	2.72747	-2.47876	3.54980
5355.280	-5.77178	2.07300	-3.93497	3.93846
5359.290	-2.76210	2.89471	-2.48133	3.96154
5363.285	-2.80630	2.94426	-3.77688	4.03234
5367.281	-3.42297	3.54348	-2.72238	3.43052
5371.304	-1.81976	2.70245	-2.99641	3.81935
5375.285	-2.52191	2.80342	-3.72024	3.64617
5379.281	-3.68686	2.61501	-2.43449	3.59006
5383.283	-2.32677	2.81212	-3.21191	3.72692
5387.277	-3.13011	2.94345	-3.76715	3.89755
5391.292	-3.48659	3.06206	-3.30727	3.78212
5395.287	-3.83984	2.97835	-3.03945	4.28389
5399.284	-3.68589	3.29172	-3.00584	3.92365
5403.289	-3.41891	3.66676	-3.18383	3.66301
5407.281	-3.55278	2.92459	-3.61493	4.39401
5411.281	-3.66535	2.89871	-1.88003	3.87319
5415.284	-3.40477	2.88133	-2.43501	4.12452
5419.280	-3.39604	2.87211	-3.52262	3.61451
5423.281	-3.69158	2.92889	-3.33040	3.46478
5427.282	-4.33389	2.20285	-2.91752	3.04814
5431.282	-3.03435	2.81173	-3.18145	3.17296
5435.274	-3.28563	4.83172	-3.30933	2.97781
5439.290	-5.21747	2.89561	-3.56803	2.79286
5443.284	-3.35936	3.57416	-3.44943	3.16474
5447.283	-3.38251	3.01069	-3.32147	2.80642
5451.277	-2.41395	1.84617	-3.29312	3.28147
5455.290	-3.21456	2.55979	-3.27588	2.97302
5459.286	1.35107	3.12340	-3.47287	2.78713
5463.276	-2.97567	2.24682	-3.95436	3.12436
5467.284	-3.08466	2.33521	-3.64864	3.07445
5471.280	-3.33648	2.08914	-3.44748	3.19007
5475.282	-3.53407	3.09541	-3.47455	3.59646
5479.277	-3.46701	2.72429	-3.39646	3.79477
5483.288	-2.62224	3.46206	-3.16203	3.94525
5487.280	-2.83375	3.56389	-3.22537	3.85085
5491.282	-2.67766	3.64641	-3.32671	4.02801
5495.282	-4.00084	3.44634	-3.45732	3.85915
5499.277	-2.60161	3.79777	-3.61154	3.80639
5503.284	-2.40701	3.48934	-3.84668	4.01704
5507.279	-2.80370	2.67911	-3.73720	3.94142
5511.279	-3.70799	3.05442	-3.44473	3.67422
5515.283	-3.32323	2.65868	-3.56358	3.49942
5519.294	-2.96094	1.60314	-3.61589	3.72131
5523.284	-2.23950	1.92741	-3.69763	3.80178
5527.279	-2.42515	3.52333	-3.77560	3.81687
5531.280	-1.33768	3.77598	-3.68955	3.72918
5535.278	-2.26958	3.35435	-3.71817	3.75770
5539.277	-2.39163	3.88053	-3.69872	3.95203
5543.282	-2.56359	4.19018	-3.33792	4.02772
5547.281	-2.55151	4.13609	-3.26314	4.17653
5551.282	-3.46439	3.89250	-2.91022	3.19593
5555.275	-2.66340	3.78616	-3.24043	3.56932
5559.283	-2.76629	4.07981	-2.82316	3.63495
5563.400	-0.42956	3.85532	-3.06543	4.05979
5567.287	-2.59554	4.18378	-3.21203	5.24404
5571.281	-2.95381	1.82302	-2.82157	4.76905
5575.284	-2.17222	3.44147	-1.35643	5.18152
5579.281	-0.18360	3.48725	-0.39859	4.18324
5583.314	0.36509	3.79049	0.83332	4.02506
5587.275	0.94281	3.14587	0.78980	3.54924
5591.280	1.10631	2.77656	0.70940	3.49235
5595.279	1.23826	2.49153	0.61791	3.66963
5599.276	1.17716	2.32225	0.37519	3.84273
5603.280	1.36526	2.25770	0.19229	3.65769
5607.282	1.36811	1.99131	0.41070	3.61047
5611.275	1.60513	2.12128	0.16216	3.57734
5615.282	1.63633	2.44625	-0.41298	3.67447
5619.275	1.68930	2.41373	-0.44726	3.73483
5623.279	1.48706	2.40479	-0.20527	3.72119
5627.274	1.23022	2.27069	-0.16864	3.76007
5631.313	0.73610	2.16571	0.00514	3.77973
5635.280	-0.50371	2.20039	0.04792	3.91225
5639.288	0.16836	1.96668	-0.02770	3.97153
5643.282	1.18656	1.93296	-0.33233	3.96921
5647.290	1.62688	2.00593	-0.16702	4.20964
5651.282	0.12248	2.04367	-0.07264	4.28019
5655.280	0.57399	2.14390	0.03904	4.30579
5659.275	0.79920	2.06449	0.04959	4.43875
5663.281	0.92090	2.19111	-0.10907	4.31638
5667.276	1.19505	2.51210	0.24855	4.28047
5671.278	1.35512	2.29466	0.27791	4.11373
5675.325	1.20869	2.33604	0.20204	3.99559
5679.275	0.82528	2.19449	0.12337	4.01937
5683.280	1.10646	2.11400	-0.05222	3.81367
5687.278	-1.04163	2.16027	0.06763	4.00016
5691.279	-1.21936	2.21219	0.30992	3.87452
5695.284	0.43038	1.99018	0.25234	3.55197
5699.304	-0.02623	2.02930	0.29151	2.83096
5703.281	1.24920	2.11365	0.15809	3.43301
5707.282	0.59451	1.95573	-0.11791	3.41645
5711.280	0.37970	1.98066	-0.11290	3.72135
5715.278	0.71660	2.00835	-0.30975	4.93407
5719.278	0.45785	1.99303	-0.09875	4.87419
5723.274	0.66754	1.90952	-0.27116	4.83849
5727.279	0.46046	2.01700	-0.05492	4.51660
5731.298	-0.55029	2.50103	0.04889	4.11031
5735.277	-0.22991	2.00330	-0.17697	3.80604
5739.158	0.29975	1.95122	-0.16943	4.11695
5743.152	0.53049	2.26851	-0.21966	3.59591
5747.153	0.92870	1.87348	-0.29863	3.81545
5751.147	1.13762	1.56907	-0.15233	3.37021
5755.153	0.54111	2.40867	-0.06532	3.43389
5759.151	0.89297	2.05432	-0.34655	4.17530
5763.153	0.74990	1.91450	-0.61714	5.10315
5767.195	-1.45822	2.22353	-0.13985	4.40198
5771.157	-0.35273	2.37219	-0.05519	3.97633
5775.152	1.09167	1.98089	-0.12545	3.83435
5779.158	0.52505	2.15275	-0.20065	3.66598
5783.149	0.76121	1.87525	-0.11560	3.16385
5787.153	1.24168	2.09793	0.00916	3.92199
5791.150	-0.26227	1.98034	0.16206	4.09092
5795.154	-0.42097	2.45519	0.06713	4.62055
5799.147	-0.28011	1.83977	0.25939	3.96330
5803.154	0.55285	1.69680	0.14680	3.58170
5807.182	0.09277	1.74164	0.05586	3.86805
5811.146	0.94864	1.90881	0.33908	4.14441
5815.154	-0.38340	3.05792	0.10634	6.26998
5819.156	0.63089	1.51071	-1.66832	5.57710
5823.156	2.05618	1.48057	-2.00790	4.18905
5827.157	3.84021	1.04807	-8.19428	2.93033
5831.161	1.85941	3.52431	0.00946	3.76964
5835.166	3.22975	6.30104	-0.21140	6.74705
5839.153	NaN	NaN	0.03757	9.37237
5843.142	NaN	NaN	NaN	NaN
5847.153	NaN	NaN	NaN	NaN
5851.146	NaN	NaN	NaN	NaN
5855.163	NaN	NaN	NaN	NaN
5859.147	NaN	NaN	NaN	NaN
5863.149	NaN	NaN	NaN	NaN
5867.147	NaN	NaN	NaN	NaN
5871.141	NaN	NaN	NaN	NaN
5875.149	NaN	NaN	NaN	NaN
5879.160	NaN	NaN	NaN	NaN
5883.142	NaN	NaN	NaN	NaN
5887.149	NaN	NaN	NaN	NaN
5891.145	NaN	NaN	NaN	NaN
5895.160	NaN	NaN	NaN	NaN
5899.153	NaN	NaN	NaN	NaN
5903.603	NaN	NaN	NaN	NaN
5907.273	NaN	NaN	NaN	NaN
5911.156	NaN	NaN	NaN	NaN
5915.152	NaN	NaN	NaN	NaN
5919.148	NaN	NaN	NaN	NaN
5923.149	NaN	NaN	NaN	NaN
5927.150	NaN	NaN	NaN	NaN
5931.151	NaN	NaN	NaN	NaN
5935.148	NaN	NaN	NaN	NaN
5939.147	NaN	NaN	NaN	NaN
5943.156	NaN	NaN	NaN	NaN
5947.156	NaN	NaN	NaN	NaN
5951.154	NaN	NaN	NaN	NaN
5955.153	NaN	NaN	NaN	NaN
5959.150	NaN	NaN	NaN	NaN
5963.151	NaN	NaN	NaN	NaN
5967.150	NaN	NaN	NaN	NaN
5971.736	-22.81694	10.26784	NaN	NaN
5975.515	-19.99374	-12.07742	NaN	NaN
5979.322	-19.99374	-12.07742	NaN	NaN
5983.163	-19.99374	-12.07742	NaN	NaN
5987.158	-19.99374	-12.07742	NaN	NaN
5991.147	-19.99374	-12.07742	NaN	NaN
5995.150	-19.99374	-12.07742	NaN	NaN
5999.145	-19.99374	-12.07742	NaN	NaN
6003.153	-19.99374	-12.07742	NaN	NaN
6007.175	-19.99374	-12.07742	NaN	NaN
6011.150	-19.99374	-12.07742	NaN	NaN
6015.146	NaN	NaN	NaN	NaN
6019.156	NaN	NaN	NaN	NaN
6023.149	NaN	NaN	NaN	NaN
6027.148	NaN	NaN	NaN	NaN
6031.177	NaN	NaN	NaN	NaN
6035.155	NaN	NaN	NaN	NaN
6039.149	NaN	NaN	-7.69685	15.03972
6043.147	3.06602	14.11398	NaN	NaN
6047.139	NaN	NaN	NaN	NaN
6051.149	NaN	NaN	NaN	NaN
6055.145	NaN	NaN	NaN	NaN
6059.146	NaN	NaN	NaN	NaN
6063.147	NaN	NaN	NaN	NaN
6067.145	NaN	NaN	NaN	NaN
6071.150	NaN	NaN	NaN	NaN
6075.148	NaN	NaN	NaN	NaN
6079.145	NaN	NaN	NaN	NaN
6083.143	NaN	NaN	NaN	NaN
6087.146	NaN	NaN	NaN	NaN
6091.142	NaN	NaN	NaN	NaN
6095.163	NaN	NaN	NaN	NaN
6099.140	NaN	NaN	NaN	NaN
6103.140	NaN	NaN	NaN	NaN
6107.173	NaN	NaN	NaN	NaN
6111.160	NaN	NaN	NaN	NaN
6115.152	NaN	NaN	NaN	NaN
6119.141	NaN	NaN	NaN	NaN
6123.147	NaN	NaN	NaN	NaN
6127.144	NaN	NaN	NaN	NaN
6131.148	NaN	NaN	NaN	NaN
6135.144	NaN	NaN	NaN	NaN
6139.149	NaN	NaN	NaN	NaN
6143.148	NaN	NaN	NaN	NaN
6147.142	NaN	NaN	NaN	NaN
6151.139	NaN	NaN	NaN	NaN
6155.143	NaN	NaN	NaN	NaN
6159.141	NaN	NaN	NaN	NaN
6163.142	NaN	NaN	NaN	NaN
6167.160	NaN	NaN	NaN	NaN
6171.148	NaN	NaN	NaN	NaN
6175.633	NaN	NaN	NaN	NaN
6179.293	NaN	NaN	NaN	NaN
6183.147	NaN	NaN	NaN	NaN
6187.145	NaN	NaN	NaN	NaN
6191.146	NaN	NaN	NaN	NaN
6195.149	NaN	NaN	NaN	NaN
6199.146	NaN	NaN	NaN	NaN
6203.145	NaN	NaN	NaN	NaN
6207.154	NaN	NaN	NaN	NaN
6211.137	NaN	NaN	NaN	NaN
6215.148	NaN	NaN	NaN	NaN
6219.208	NaN	NaN	NaN	NaN
6223.146	NaN	NaN	NaN	NaN
6227.141	NaN	NaN	NaN	NaN
6231.140	NaN	NaN	NaN	NaN
6235.146	NaN	NaN	NaN	NaN
6239.142	NaN	NaN	NaN	NaN
6243.152	NaN	NaN	NaN	NaN
6247.143	NaN	NaN	NaN	NaN
6251.143	NaN	NaN	NaN	NaN
6255.145	NaN	NaN	NaN	NaN
6259.141	NaN	NaN	NaN	NaN
6263.144	NaN	NaN	NaN	NaN
6267.143	NaN	NaN	NaN	NaN
6271.143	NaN	NaN	NaN	NaN
6275.143	NaN	NaN	NaN	NaN
6279.144	NaN	NaN	NaN	NaN
6283.142	NaN	NaN	NaN	NaN
6287.148	NaN	NaN	NaN	NaN
6291.143	NaN	NaN	NaN	NaN
6295.156	NaN	NaN	NaN	NaN
6299.145	NaN	NaN	NaN	NaN
6303.135	NaN	NaN	NaN	NaN
6307.142	NaN	NaN	NaN	NaN
6311.140	NaN	NaN	NaN	NaN
6315.139	NaN	NaN	NaN	NaN
6319.141	NaN	NaN	NaN	NaN
6323.145	NaN	NaN	NaN	NaN
6327.152	NaN	NaN	NaN	NaN
6331.141	NaN	NaN	NaN	NaN
6335.138	NaN	NaN	NaN	NaN
6339.138	NaN	NaN	NaN	NaN
6343.147	NaN	NaN	NaN	NaN
6347.142	NaN	NaN	NaN	NaN
6351.137	NaN	NaN	NaN	NaN
6355.135	NaN	NaN	NaN	NaN
6359.131	NaN	NaN	NaN	NaN
6363.141	NaN	NaN	NaN	NaN
6367.135	NaN	NaN	20.87646	-5.81099
6371.151	NaN	NaN	NaN	NaN
6375.137	NaN	NaN	NaN	NaN
6379.139	NaN	NaN	10.35834	13.76826
6383.144	NaN	NaN	NaN	NaN
6387.145	NaN	NaN	NaN	NaN
6391.171	NaN	NaN	NaN	NaN
6395.220	NaN	NaN	NaN	NaN
6399.449	NaN	NaN	17.03534	13.49642
6403.681	NaN	NaN	15.38346	13.04013
6407.786	6.00894	0.51020	14.32712	12.27775
6411.825	1.67973	3.31479	14.64529	11.33451
6415.986	NaN	NaN	14.34748	9.80601
6420.039	NaN	NaN	15.22583	9.43786
6424.123	NaN	NaN	14.49576	8.44594
6428.279	NaN	NaN	14.26466	6.95349
6432.488	NaN	NaN	1.28554	-0.77602
6436.744	NaN	NaN	3.80614	-0.44974
6440.955	NaN	NaN	0.93860	-0.74022
6446.082	NaN	NaN	0.02035	-1.15637
6450.441	NaN	NaN	-0.57516	0.69546
6454.647	NaN	NaN	-1.49741	-3.42717
6458.843	NaN	NaN	-1.24270	-1.26484
6463.063	NaN	NaN	0.61111	-1.63066
6467.208	NaN	NaN	-0.52379	-2.80302
6471.364	NaN	NaN	-0.93621	-1.41895
6475.657	NaN	NaN	-0.81196	-2.36704
6479.928	NaN	NaN	-1.34108	-3.20908
6484.153	NaN	NaN	-0.73722	-3.56681
6488.344	NaN	NaN	-0.09850	-3.36703
6492.553	NaN	NaN	3.33065	-1.92285
6496.752	NaN	NaN	3.28224	-1.59695
6500.892	NaN	NaN	5.44822	-1.80119
6505.079	NaN	NaN	5.72087	-0.51615
6509.278	NaN	NaN	3.79097	-2.57608
6514.416	NaN	NaN	5.43354	-1.69645
6518.668	NaN	NaN	5.11465	-1.88237
6522.973	NaN	NaN	5.65388	-1.11379
6527.196	NaN	NaN	6.25191	-1.05668
6531.424	NaN	NaN	6.48186	-0.95133
6535.142	9.43385	-4.56290	5.74699	-0.99184
6539.141	10.60370	-4.49513	5.71126	-0.44145
6543.137	6.29754	-3.80856	5.16506	0.00146
6547.140	8.40259	-4.04435	5.88314	0.78404
6551.132	10.08476	-3.96276	5.87528	0.56624
6555.141	3.15189	14.04876	6.48127	2.07829
6559.136	NaN	NaN	6.31232	-1.07130
6563.140	NaN	NaN	8.50748	-0.16159
6567.130	NaN	NaN	7.49483	0.28051
6571.146	NaN	NaN	6.87438	0.19048
6575.142	11.22406	-4.17314	5.11531	-2.18092
6579.155	11.12312	-5.76303	8.24706	1.17952
6583.137	5.24142	-1.99077	7.96777	-0.24715
6587.138	10.97619	-4.09341	7.33159	0.74304
6591.141	10.84128	-4.05250	7.91779	0.33640
6595.010	10.86084	-2.12830	7.75595	0.46995
6599.010	12.01749	-4.08387	7.69127	1.92778
6603.009	NaN	NaN	8.46456	0.47598
6607.014	15.97925	-5.46771	7.75361	1.07445
6611.006	13.25181	-4.26612	7.84593	1.40599
6615.020	10.33915	-0.49311	7.75773	0.05195
6619.024	10.54843	-1.66453	8.00547	1.83840
6623.013	12.53798	-4.02577	8.32816	0.45303
6627.010	NaN	NaN	8.17148	1.28522
6631.011	14.04192	-3.79195	7.77022	1.58324
6635.014	NaN	NaN	8.20325	0.88102
6639.018	NaN	NaN	7.71096	1.83776
6643.013	10.54169	-2.97914	7.79342	-0.07836
6647.009	13.45040	-3.71741	8.24057	1.93789
6651.010	10.03823	-2.10298	7.48454	0.72696
6655.007	10.96846	-2.08687	7.28381	2.24670
6659.015	10.25401	-2.50937	6.83479	-0.55961
6663.013	10.28827	-3.42247	7.22375	1.78299
6667.007	9.88427	-2.13225	7.82060	1.18470
6671.011	10.51686	-2.27896	6.14678	-1.06215
6675.015	9.66511	-1.83186	8.11960	1.53340
6679.011	9.47097	-1.78214	7.22085	2.00039
6683.004	10.38269	-2.38843	7.65710	1.76477
6687.012	10.28690	-2.49213	8.04540	1.28033
6691.008	NaN	NaN	7.36039	1.21326
6695.010	NaN	NaN	7.51486	1.34691
6699.012	13.23927	-2.56420	8.28721	0.65858
6703.009	10.19505	-2.09479	7.77174	0.76500
6707.011	9.86683	-1.53544	8.03874	0.31538
6711.010	14.21948	-2.69695	7.88517	0.65540
6715.008	12.32798	-2.20532	7.66663	1.90590
6719.066	11.69738	-2.60161	7.59358	1.17593
6723.020	10.30137	-0.91946	7.23347	1.62451
6727.006	11.73799	-2.62378	7.28708	0.73803
6731.006	13.35621	-2.93813	7.18171	1.08367
6735.007	6.66499	-1.51749	6.90444	0.63362
6739.015	8.06017	-2.00812	7.30598	0.60406
6743.007	10.27434	-1.60804	6.60230	0.54556
6747.012	6.41516	-2.99832	6.51721	0.39869
6751.007	6.76784	-2.89696	7.21962	-0.61118
6755.011	7.00475	-0.92422	6.33098	0.38508
6759.004	7.31413	-3.06279	6.19753	0.01670
6763.028	7.00604	-3.56390	7.41785	0.45378
6767.014	7.96836	-1.73442	5.98469	-0.08173
6771.004	6.96042	-2.42761	6.20442	0.44994
6775.013	8.45686	-3.43068	6.12565	-0.17315
6779.007	10.97392	-3.11867	5.95614	0.07002
6783.017	10.06556	-3.32103	7.60702	-0.22685
6787.012	9.79072	-4.79311	6.29519	-0.02267
6791.010	12.64331	-2.96226	NaN	NaN
6795.009	8.04562	-2.36333	8.44620	-0.34615
6799.002	8.03993	-3.48887	7.28395	-0.06773
6803.011	6.30117	-5.09329	5.65255	0.04456
6807.008	8.15793	-1.76081	6.27731	0.31673
6811.024	6.62412	-2.59882	6.54950	1.85833
6815.010	5.89642	-3.15383	5.61898	0.04555
6819.009	8.32983	-0.78034	5.91376	0.10354
6823.019	6.90116	-0.77908	6.92342	-0.06909
6827.050	5.91636	-1.57438	5.26130	0.64239
6831.023	7.81322	2.07350	6.03299	0.29216
6835.002	5.84448	1.75823	7.15648	-0.16095
6839.010	8.15540	-0.74918	6.58817	0.12700
6843.005	8.07818	-0.68648	5.63446	-0.14133
6847.009	6.77210	3.38643	7.78567	0.27225
6851.006	8.17551	1.76295	6.04949	0.04705
6855.004	7.38656	1.90043	5.95344	-0.10556
6859.007	6.87296	1.80731	7.75149	-0.09086
6863.008	8.22749	1.04166	5.66106	0.49000
6867.009	11.32779	-3.89855	8.21867	0.36799
6871.007	9.67791	-4.09130	7.84221	0.04574
6875.005	5.65766	4.75119	6.11282	0.11390
6879.007	8.83316	-3.12481	8.17471	0.73874
6883.005	8.25326	-3.20828	7.80969	-0.28092
6887.003	9.00193	-2.99190	5.91111	0.20705
6891.010	8.22973	-3.03028	5.72256	0.42727
6895.009	8.88632	-2.71771	7.54281	0.60837
6899.003	9.46012	-3.10310	6.80056	0.16157
6903.004	7.24881	-3.42527	5.65086	0.50121
6907.011	10.67111	-4.20658	5.62881	0.21101
6911.005	9.48451	-3.51063	6.47953	0.30445
6915.002	8.32701	-3.24040	5.68030	0.56826
6919.019	9.60642	-3.22722	6.00970	0.45366
6923.006	9.58511	-3.64739	6.03319	0.19233
6927.010	9.61976	-3.44518	6.16871	0.32534
6931.009	7.97802	-2.88082	5.71615	0.61349
6935.005	9.81392	-4.60217	6.24455	0.46559
6939.007	8.00462	-3.43170	7.31040	-2.30093
6943.000	9.66171	-3.73666	7.62843	0.01978
6947.012	8.19547	-3.72170	6.13159	-0.15420
6951.013	7.70363	-3.78968	5.75789	0.92140
6955.017	8.19591	-3.56526	6.43743	0.49934
6959.012	13.03011	-4.52791	6.15156	-0.05173
6963.006	9.25644	-3.52461	7.46956	0.13236
6967.005	7.45421	-3.36654	6.22255	0.41791
6971.002	7.95292	-3.58932	7.04494	0.81979
6975.009	9.87810	-4.45385	5.46050	0.47656
6979.004	9.35447	-3.37225	6.32664	0.57393
6983.008	8.03521	-3.75998	5.92572	0.77249
6986.999	7.05853	-3.51380	6.58824	-0.29229
6991.018	9.27675	-3.91719	6.09908	0.82222
6995.016	9.97065	-3.53028	6.91747	0.46886
6999.005	8.61310	-3.70782	6.37118	0.51798
7003.005	7.61653	-3.22837	5.91636	0.50599
7007.004	7.42158	-3.87813	6.78094	0.27498
7011.008	10.40444	-4.42558	6.89321	0.80617
7015.020	9.05567	-3.66812	6.77085	0.04067
7019.001	6.23086	-3.99665	6.41047	0.56870
7023.008	9.20303	-3.85892	5.74067	0.01716
7027.004	2.95225	-4.05384	6.93242	-0.11248
7031.009	5.71079	-3.69085	6.33522	0.37789
7035.003	3.68231	-2.41027	6.89708	-0.03797
7039.005	3.05397	-0.88085	6.57458	-0.13799
7043.006	7.45706	-3.94273	6.91371	-0.32851
7047.038	9.69950	-4.25599	7.20797	-0.29558
7051.006	8.68657	-4.00403	6.47306	1.04304
7055.003	9.66615	-5.01141	5.66612	0.72228
7059.006	6.67074	-4.15465	6.68959	-1.99721
7063.000	9.91698	-5.50091	6.88695	-0.87983
7067.007	9.16407	-4.38595	6.71224	-0.55030
7071.003	10.05255	-4.62620	6.76545	0.08160
7075.021	9.62196	-4.91901	6.95091	-0.65844
7079.013	9.27931	-4.67568	6.70362	-0.40789
7083.000	8.63083	-5.50302	6.61418	-0.54564
7087.005	9.20876	-4.41313	5.77128	-0.76328
7090.997	8.19958	-4.92799	6.96983	-1.01111
7095.020	9.17495	-4.65659	6.42464	0.79331
7099.006	9.27421	-4.86772	6.14862	0.69055
7103.002	8.78777	-5.42553	6.63215	-0.51850
7107.000	8.25430	-4.92858	6.53308	-0.57609
7111.004	11.83850	-5.26588	5.82014	-0.19836
7115.006	10.76499	-5.26483	6.81551	0.24409
7119.002	6.85757	-4.74000	7.13656	-0.42781
7123.005	8.82262	-5.20271	6.37871	-0.09789
7127.001	8.38255	-4.63786	6.64753	0.75967
7131.000	7.20333	-4.88038	6.72176	0.10123
7135.006	7.42634	-4.55003	5.21968	0.56647
7139.000	8.90223	-4.94106	6.57825	0.54057
7143.005	6.27976	-4.28734	5.03925	-0.83588
