time (ms)	lx (deg)	ly (deg)	rx (deg)	ry (deg)
0.000	1.20604	2.39195	2.57640	1.59466
3.961	1.28425	2.56002	3.28894	1.42301
8.000	1.18810	2.76404	2.71560	2.38501
11.956	1.33108	3.51935	2.55108	1.60119
15.998	0.92999	3.71667	2.90455	2.76839
20.003	0.62992	3.92413	2.12801	1.68345
23.998	-0.34218	3.83565	-0.04785	1.96795
28.003	-2.46144	3.14971	1.24635	1.63529
31.975	-1.92257	1.80236	1.28594	1.74234
35.885	-2.00547	2.42289	1.82933	2.20603
40.002	-2.15544	2.10911	0.74198	2.36916
44.003	-1.78701	2.61829	0.54352	2.21008
48.003	-1.22586	3.19372	1.01412	2.23511
52.004	-1.72079	2.75491	1.15255	2.50994
55.999	-1.26636	2.95126	0.41993	2.72628
60.003	-1.81927	2.81106	0.14196	2.55642
63.999	-1.84473	2.42007	0.61121	3.22251
67.898	-1.69173	2.72071	0.56965	3.06961
71.959	-1.97381	2.68613	0.67680	2.82259
75.998	-1.93725	2.98016	0.74551	2.42189
80.001	-1.73051	2.89762	1.09899	2.12044
83.903	-1.67566	2.84270	1.15330	1.39899
88.000	-1.40941	2.99384	1.55834	-0.42893
92.002	-1.36781	2.83785	0.86567	0.23124
96.001	-1.78607	2.91988	0.38281	-0.47564
99.897	-1.50207	2.83453	0.39601	-0.57619
104.000	-1.40261	2.44579	0.14248	-0.80859
108.006	-1.37749	1.99922	0.44564	-1.29724
112.001	-1.77598	2.68554	0.89547	-1.54121
116.003	-1.80717	2.40743	0.82300	-1.46938
120.001	-1.92766	2.12518	1.03789	-0.98427
123.957	-1.88732	2.54991	0.73888	-1.52518
128.001	-1.96248	2.31553	0.90661	-1.77327
131.962	-1.87270	2.06228	1.00025	-1.54836
136.002	-1.93432	2.15823	0.92098	-1.29803
140.003	-1.56181	2.24723	1.05394	-1.61780
144.004	-1.11440	1.97267	1.03024	-1.22056
148.005	-1.93948	2.33133	1.08177	-1.20725
152.002	-1.91476	2.31609	1.11112	-0.72810
155.982	-1.92133	2.21581	1.31330	-0.04772
160.009	-1.80965	2.24325	1.24863	-0.51578
164.007	-1.64181	2.19442	1.49319	0.27568
168.001	-1.89778	2.24870	1.46663	2.78638
172.000	-1.88226	2.06777	1.48047	2.66864
175.999	-1.75446	2.02778	1.72220	2.67375
180.005	-1.71320	1.79682	1.56360	2.02192
184.001	-1.95453	2.07121	1.19413	1.83533
188.001	-1.92716	2.02768	1.24835	1.45510
192.002	-1.97304	2.33126	0.62672	0.47744
195.901	-2.19626	2.29278	0.67302	0.59207
199.992	-2.01067	3.17860	0.86701	0.57997
204.006	-2.14766	2.80932	0.44467	0.36435
207.882	-1.94493	2.96536	0.16893	0.23765
211.901	-2.05804	2.82652	0.41006	0.22413
215.878	-2.43211	2.78486	0.50920	0.42209
219.834	-2.29721	2.69887	0.63843	0.95431
223.880	-2.01516	2.46262	0.75069	0.46383
227.879	-2.11824	2.52938	0.44909	0.77997
231.880	-2.11827	2.61393	0.54570	1.07957
235.878	-1.95745	2.64928	0.68804	2.06638
239.881	-2.10929	2.70474	0.93825	3.00555
244.009	-1.79842	2.64913	0.90302	1.17329
247.873	-1.78364	2.69889	0.76886	0.67243
251.879	-1.60191	2.61457	1.24498	-1.19303
255.878	-1.59730	2.90725	1.02814	-1.13587
259.902	-1.50834	3.24968	1.25267	-1.24872
263.882	-1.32351	3.16767	1.24984	-0.81925
267.879	-1.04754	1.88059	1.11698	-0.67956
271.879	-0.80945	1.90678	1.31875	-0.17631
276.007	-0.51639	1.78623	1.40621	-0.15514
279.882	-1.83506	1.95191	1.27919	0.07207
283.877	-1.83687	2.20557	1.34862	-0.81283
287.879	-1.55700	1.80110	1.40787	-0.27917
291.848	-1.12745	1.78635	0.96951	-1.08028
295.881	-1.06356	1.65870	0.68935	-0.83061
299.875	-1.17852	1.62450	1.30913	-1.40085
303.875	-0.77866	1.63570	1.10812	-1.07760
307.905	-0.93522	1.81426	0.97020	-1.22480
311.882	-0.76866	1.69665	1.26438	-1.45892
315.836	-0.74618	1.93961	1.21070	-1.07774
319.879	-0.66843	1.58439	0.96601	-0.57598
323.902	0.03383	1.77190	1.08884	0.88788
327.858	-2.45059	2.09573	1.15104	3.16654
331.881	-1.55025	1.98666	1.06170	3.77965
335.883	-1.45948	2.32899	1.11407	2.35522
339.872	-1.07101	2.20342	1.25984	-1.75742
343.877	-0.54692	2.31172	0.86287	-1.24237
347.879	-0.79600	2.09891	1.09941	-2.26643
351.879	-0.94452	2.18224	0.92604	-1.34287
355.880	-1.21665	2.13680	1.19790	-1.15858
359.838	-0.74739	2.42283	1.15337	-1.00862
363.883	-1.03898	2.19426	1.11765	-0.77507
367.870	-1.05721	2.31684	1.19512	-0.49507
371.880	-1.07413	2.55082	1.26287	-0.45917
375.878	-1.14819	2.60728	1.36042	-0.69398
379.878	-1.26311	2.35869	1.24508	-0.68251
383.882	-0.86771	2.52318	0.65178	-0.03533
387.873	-0.98263	2.40790	0.87880	0.48424
391.878	-0.98139	2.69926	0.65943	1.06777
395.881	-0.87056	2.42271	0.78804	1.04345
399.879	-0.52051	2.20257	1.04481	0.64935
403.881	-0.12818	2.16514	1.24580	0.71711
407.880	-1.31736	2.24494	1.34006	0.22770
411.847	-1.26232	2.57576	0.88029	0.35003
415.882	-0.93733	2.36036	0.68074	0.21754
419.880	-0.87438	2.14470	0.88905	0.20684
423.838	-0.82597	2.25875	0.46646	0.48953
427.881	-0.94038	2.17909	0.52413	0.59661
431.881	-0.81962	2.23022	0.38658	0.39653
435.902	-0.68439	2.10549	0.71479	0.43119
439.884	-0.04817	1.94814	0.50654	0.10961
443.883	-0.96859	1.84206	0.96494	-0.07767
447.883	-1.33483	2.20395	0.86423	-0.65768
451.895	-1.01809	1.96392	0.79198	-0.46930
455.881	-0.75873	2.19604	0.32516	-0.65454
459.882	-0.91974	2.19052	0.38869	-1.07803
463.884	-0.81947	2.16507	0.02457	-0.93236
467.904	-0.94438	2.09999	0.88957	-1.67468
471.881	-0.29438	2.23124	0.96497	-1.18363
475.891	0.01864	2.08358	0.70513	1.02129
479.880	0.13553	2.09164	1.03598	2.06912
483.881	-1.53820	2.04748	1.23362	1.57969
487.880	-1.40271	2.30412	0.93862	1.41741
491.884	-0.31421	2.13347	1.20008	1.20350
495.875	-0.45711	2.24973	0.34238	0.78259
499.842	0.06180	2.48445	0.76265	0.92977
503.880	-0.97154	2.54616	1.07279	0.88647
507.883	-1.46960	2.53052	0.43256	0.66434
511.881	-0.97772	2.69418	0.57324	0.09373
515.882	-0.76474	3.04736	0.66305	-0.31111
519.884	-0.45475	3.12171	1.20301	-0.43322
523.839	-0.24684	2.92464	1.17448	-1.22998
527.884	-0.11729	2.86019	1.03469	-0.39769
531.873	-0.66240	3.17261	0.79536	0.23617
535.882	-0.46639	3.03809	0.77717	0.96523
539.882	-0.32002	2.91198	0.77181	2.44097
543.883	-0.87478	2.88162	1.15533	1.88094
547.882	-0.80590	2.90566	1.13196	1.69376
551.884	-0.64116	2.63953	1.21769	1.62878
555.882	-0.33886	2.75593	1.29546	1.29210
559.883	-0.55483	2.13177	1.35628	0.42228
563.888	-0.43259	1.92838	1.05118	0.54531
567.859	-0.56498	1.72375	1.01248	-0.21660
571.882	-0.64742	1.33812	0.90212	-0.04199
575.870	-0.45021	1.29758	1.17143	-0.63518
579.883	-0.43740	1.05107	1.07947	-0.79535
583.881	-0.55957	1.06089	0.98936	-0.68978
587.883	-1.45641	1.82128	1.18418	-0.94343
591.882	-1.25471	1.54281	1.12799	-0.93690
595.889	-1.18788	1.87186	0.35087	-2.12796
599.882	-1.30657	2.07167	0.38206	-2.19207
603.882	-1.47620	3.18420	0.65077	-2.92356
607.883	-1.39760	3.09072	0.50612	-3.17146
611.905	-1.40502	2.91338	0.86540	-3.13030
615.885	-1.40393	3.15295	0.33330	-3.32733
619.849	-1.49929	2.59859	0.26994	-3.25292
623.840	-1.48287	2.54335	0.16323	-3.46824
627.845	-1.74861	2.56294	0.38700	-3.30663
631.840	-1.65446	2.80115	0.64821	-3.35384
635.886	-1.47551	2.63240	0.38713	-3.08656
639.883	-1.12410	2.37508	0.84111	-2.72784
643.891	-0.80384	2.45078	0.60491	-2.58398
647.887	-0.86046	2.51944	0.84372	-2.08906
651.885	-1.03856	2.48709	1.13017	-2.21836
655.886	-0.83580	2.28792	0.87034	-1.76157
659.877	-0.53210	2.54925	0.72218	-1.80428
663.885	-0.36635	2.65028	0.91991	-1.56481
667.886	-0.36946	2.47865	0.92969	-1.58727
671.883	-0.48217	2.57389	0.82739	-1.52537
675.887	-0.48182	2.56343	0.79878	-1.62134
679.887	-0.34856	2.31531	0.83744	-1.59563
683.884	-0.33374	2.30397	1.08984	-1.38410
687.886	-0.29855	2.23650	1.48900	-1.22407
691.875	-0.39695	2.48593	1.24731	0.10181
695.842	-0.32958	2.41444	1.10482	2.30748
699.841	-0.21561	2.35833	1.19177	3.73387
703.877	-0.22261	2.24326	1.11385	1.86037
707.877	-0.25314	2.22361	1.74506	1.79880
711.885	-0.25517	2.17626	1.55482	2.20897
715.886	-0.22073	2.04095	1.38314	1.39663
719.886	-0.16789	2.02071	1.33614	1.05223
723.886	-0.12453	1.99214	1.51305	0.98058
727.886	-0.02871	1.92623	1.55641	1.20955
731.884	-0.14144	2.42730	1.35874	0.54636
735.887	-0.18628	2.82801	1.80786	0.66423
739.890	-0.20827	2.62500	2.09152	0.46513
743.861	-0.30667	2.77342	1.49326	0.48110
747.887	-0.18700	2.92125	1.77062	0.50890
751.887	-0.24765	3.28958	1.93936	0.76067
755.891	-0.36998	2.19140	1.71127	0.28867
759.842	-0.34223	1.78227	2.15123	0.44674
763.890	-0.36888	1.98191	2.07445	0.46496
767.889	-0.44361	2.44358	1.62001	0.58929
771.894	-0.50696	1.83967	1.81399	0.58531
775.887	-0.45840	1.80796	1.89012	0.68496
779.887	-0.36546	1.74595	1.71553	1.53931
783.844	-0.36040	1.98126	1.69850	1.39707
787.890	-0.35881	1.94086	1.74164	1.43723
791.887	-0.39683	2.34874	1.72743	2.87072
795.887	-0.39134	2.77426	1.64987	1.81792
799.886	-0.43400	2.57986	1.57344	-2.26128
803.887	-0.29218	3.16456	1.56089	-2.49707
807.889	-0.32647	3.23200	1.52627	-2.06160
811.882	-0.13114	2.28116	1.55425	-2.04414
815.848	0.13528	1.38370	1.47429	-1.68043
819.882	0.39968	0.94645	1.50115	-1.59778
823.889	0.64910	0.84083	1.55457	-1.74489
827.853	0.84404	0.90493	1.66185	-1.62779
831.888	0.68816	0.83901	1.47873	-1.69589
835.891	-0.18524	1.36562	1.59085	1.28412
839.887	-1.16548	3.16932	1.46720	1.13702
843.885	-2.74356	3.11129	-0.74516	1.96657
847.887	-1.47132	3.27855	-1.82234	1.93791
851.892	-4.01989	3.21903	-2.23437	2.08351
855.891	-4.92469	3.36835	-2.76690	2.49216
859.887	-6.76770	3.44437	-7.50276	4.85065
863.890	-6.69077	3.78151	-7.08131	4.60437
867.876	-6.57803	3.47851	-7.28632	4.63152
871.887	-6.76811	3.80037	-7.40648	5.19221
875.891	-6.82366	3.85819	-7.26991	4.51936
879.889	-6.43978	4.37843	-7.45462	4.99086
883.892	-6.33064	4.79756	-7.78250	4.79182
887.887	-6.75593	4.41009	-7.66712	4.79909
891.888	-6.73701	4.72474	-4.92186	4.18976
895.888	-6.79014	4.94705	-5.06789	4.58355
899.785	-6.80411	4.95986	-5.10069	4.75754
903.888	-6.42503	3.96866	-5.35650	5.06432
907.885	-6.33218	4.53594	-2.88883	4.71373
911.882	-5.69799	4.53111	-3.83744	4.81480
915.894	-6.31657	4.77100	-4.24134	3.36033
919.889	-4.77949	4.38581	-4.06426	3.97707
923.846	-5.01406	4.54541	-4.10799	2.85135
927.888	-4.77757	4.72429	-3.87243	3.70482
931.892	-5.04119	4.84236	-2.96371	3.47962
935.890	-5.21900	4.56887	-3.26406	3.11480
939.888	-4.92967	4.89315	-2.82887	3.38619
943.888	-5.29428	4.54255	-3.42460	3.25806
947.895	-5.42225	4.89279	-3.87939	3.19411
951.860	-5.34011	4.94660	-3.33730	3.00066
955.889	-5.43477	5.04104	-1.72748	3.13025
959.889	-5.38818	5.00475	-3.33582	3.11169
963.788	-5.43516	5.12046	-3.26329	2.19379
967.890	-5.58142	5.16370	-2.77490	3.03100
971.890	-5.58852	5.21113	-3.37301	3.17775
975.888	-5.87798	5.52348	-3.31657	3.96362
979.789	-6.37663	5.92359	-2.48834	6.06938
983.889	0.38717	7.74744	10.56625	3.11828
987.890	NaN	NaN	-0.83109	6.33976
991.878	NaN	NaN	NaN	NaN
995.792	NaN	NaN	NaN	NaN
999.888	NaN	NaN	NaN	NaN
1003.851	NaN	NaN	NaN	NaN
1007.889	NaN	NaN	NaN	NaN
1011.888	NaN	NaN	NaN	NaN
1015.890	NaN	NaN	NaN	NaN
1019.889	NaN	NaN	NaN	NaN
1023.848	NaN	NaN	NaN	NaN
1027.887	NaN	NaN	NaN	NaN
1031.890	NaN	NaN	NaN	NaN
1035.857	NaN	NaN	NaN	NaN
1039.888	NaN	NaN	NaN	NaN
1043.888	NaN	NaN	NaN	NaN
1047.890	NaN	NaN	NaN	NaN
1051.891	NaN	NaN	NaN	NaN
1055.782	NaN	NaN	NaN	NaN
1059.846	NaN	NaN	NaN	NaN
1063.889	NaN	NaN	NaN	NaN
1067.891	NaN	NaN	NaN	NaN
1071.893	NaN	NaN	NaN	NaN
1075.848	NaN	NaN	NaN	NaN
1079.782	NaN	NaN	NaN	NaN
1083.890	NaN	NaN	19.97474	3.24830
1087.891	NaN	NaN	18.27678	4.08670
1091.890	NaN	NaN	18.38644	3.75537
1095.794	NaN	NaN	18.62107	3.50730
1099.894	NaN	NaN	19.60254	2.88272
1103.891	NaN	NaN	19.15988	3.26606
1107.891	17.39967	6.59667	14.60316	4.23920
1111.896	15.21751	10.23927	15.45504	3.40180
1115.891	15.08722	6.59049	14.53586	4.85937
1119.884	17.07041	6.76329	19.56172	2.91178
1123.884	16.83550	7.84085	20.32110	1.15442
1127.757	16.95883	11.82503	15.10869	5.42771
1131.892	16.24498	8.32275	13.87480	2.82034
1135.894	15.03837	5.39341	11.56545	2.99618
1139.893	16.71900	5.62998	12.67182	0.63667
1143.791	15.20861	4.72108	13.22773	1.13058
1147.890	12.12412	5.58275	14.96446	0.51351
1151.894	10.89073	5.68314	14.65544	0.70525
1155.893	8.93406	5.92335	15.06089	1.13916
1159.794	9.00143	6.19117	15.40256	1.06913
1163.892	9.18163	5.48854	16.19505	0.99983
1167.896	9.10315	4.43682	14.55195	1.14927
1171.891	9.10852	3.54966	13.40657	2.35626
1175.790	8.80767	4.19363	13.11321	1.64842
1179.890	9.15338	3.67305	12.87553	2.02390
1183.892	9.37090	4.12509	12.97629	1.14997
1187.893	8.86083	2.79317	13.73634	-0.03206
1191.789	8.43117	3.68735	13.66475	-0.52214
1195.891	8.86655	3.20274	14.04112	0.83685
1199.892	8.08406	3.12551	13.08326	3.65827
1203.850	8.62845	2.72937	12.88077	2.07254
1207.791	8.71761	3.69148	13.20879	2.14389
1211.893	8.24390	3.42471	14.06280	0.79200
1215.896	8.31115	3.60422	14.01454	0.18832
1219.893	8.46136	3.49439	12.78330	0.55286
1223.793	8.22061	3.05635	12.73857	-0.27044
1227.893	8.35182	3.22062	13.64342	-0.83647
1231.893	8.07319	3.37927	14.40360	-1.19351
1235.892	8.19586	3.17165	14.57555	-1.41601
1239.808	8.11605	2.95391	12.37749	-1.16177
1243.766	8.39678	2.00366	13.47362	-1.31574
1247.749	7.95901	0.95349	14.12095	-1.30260
1251.771	8.30206	1.64080	14.76526	-1.64603
1255.900	8.02355	2.15095	12.40851	0.04917
1259.726	8.08046	2.90174	13.92554	-0.98513
1263.768	8.01336	3.02244	15.02080	-0.54363
1267.772	7.73986	3.02871	13.28246	0.59557
1271.766	7.78764	1.15302	13.09718	-0.22446
1275.771	7.58468	1.81069	14.83928	-0.38703
1279.766	8.00705	2.00816	13.24080	0.02245
1283.769	7.72566	2.17371	13.24569	0.09941
1287.762	7.59534	2.80740	14.25191	-0.31839
1291.758	7.87092	2.98274	14.77691	-0.32636
1295.768	7.85010	3.16622	14.56067	-0.16602
1299.772	7.82494	2.89986	15.04487	-1.58067
1303.770	7.70882	3.24296	13.21797	-0.44561
1307.768	7.89289	3.36746	13.24005	-2.63427
1311.771	7.85020	3.43117	14.31183	0.77237
1315.727	8.00679	2.87124	13.39734	0.62456
1319.792	7.94720	2.79626	13.95135	0.53418
1323.769	7.75163	2.95420	14.47001	0.52841
1327.773	7.63216	3.01575	12.19033	0.32401
1331.740	5.66000	3.36603	11.63775	0.32007
1335.769	6.39192	3.07900	11.37715	-2.28148
1339.770	5.10054	2.83514	10.38778	1.08040
1343.770	4.40071	3.29796	10.01274	1.59112
1347.731	4.04678	3.21951	7.07444	2.12686
1351.791	4.05058	3.22968	7.79391	3.08483
1355.772	3.42908	2.60965	9.88357	1.91060
1359.769	NaN	NaN	NaN	NaN
1367.777	3.81768	3.33553	8.99031	-1.69669
1371.768	4.15413	2.80896	9.16479	2.27711
1375.768	3.96844	2.87793	8.67267	1.39809
1379.727	3.86101	2.56674	9.31018	1.66677
1383.772	3.70717	2.96028	9.11327	-0.51771
1387.770	3.83697	2.82740	8.82645	2.01871
1391.768	3.69795	3.15271	9.18289	-1.39974
1395.771	3.97914	3.06825	9.12841	2.28109
1399.772	3.60526	3.11720	9.29314	2.01112
1403.762	7.91180	7.24439	9.07559	1.80950
1407.768	3.74288	1.94699	9.10243	-0.08384
1411.773	3.80144	2.27934	8.09698	1.01797
1415.737	3.74046	1.65367	9.26969	-0.10514
1419.740	3.76742	1.82879	8.77839	-0.41664
1423.771	3.76431	1.89666	9.22313	-0.53023
1427.728	3.72061	2.07694	8.51253	-0.52772
1431.772	3.58413	2.80609	8.98690	0.27906
1435.775	3.54022	2.52764	8.79783	1.83818
1439.771	3.64758	2.73289	9.44880	1.34867
1443.771	3.67287	3.62794	6.97656	1.72611
1447.772	3.81264	2.65756	9.43767	0.53900
1451.766	3.71582	2.97160	8.13400	0.35368
1455.750	3.96135	2.89672	9.07777	-0.43615
1459.774	3.75457	2.86564	8.39314	-0.93080
1463.773	3.93016	2.91204	8.99010	-1.29891
1467.796	3.86857	2.20881	10.42919	-2.37969
1471.771	4.00808	2.45443	9.23016	-1.44281
1475.771	3.73057	2.86102	9.42197	-1.49011
1479.771	3.84011	3.18677	9.30039	-1.55523
1483.794	3.94806	3.06226	9.17004	-0.96361
1487.773	3.80026	3.58259	9.13265	-1.36818
1491.775	4.05172	0.87605	9.57705	-2.01825
1495.767	4.02038	3.08071	9.16337	-1.41269
1499.765	3.98215	3.03655	9.17118	-1.89525
1503.771	3.97857	3.40036	9.20625	-1.49231
1507.774	4.14730	3.32284	10.22906	-1.28285
1511.772	3.92280	2.71498	9.02256	-1.10390
1515.794	4.05278	2.82262	11.65423	-1.69304
1519.775	3.85046	2.98363	9.26628	-1.22630
1523.775	4.02453	3.06406	10.75622	-1.16586
1527.729	3.64459	3.33098	8.67507	-1.05487
1531.793	3.66849	3.60536	9.35174	-0.87690
1535.774	3.94554	3.21665	9.10405	-1.30556
1539.769	3.62687	3.33072	8.40524	-0.95439
1543.776	4.00657	2.59734	11.05366	-1.01766
1547.770	3.72721	1.86977	8.85322	-0.63980
1551.770	3.62909	2.58177	9.05163	-1.11254
1555.784	3.68784	2.32782	11.23793	-1.13905
1559.772	3.68982	2.16262	8.36773	-1.05119
1563.796	3.71799	2.24822	10.86440	-1.95211
1567.772	3.58391	3.26985	11.18771	-0.57554
1571.777	4.01388	2.46337	8.83142	-1.42012
1575.772	3.79181	2.51129	9.09074	-0.52854
1579.773	3.73646	2.93055	9.70333	2.92584
1583.773	3.84238	3.16420	9.49929	2.46647
1587.776	3.71997	2.78877	8.88801	2.78589
1591.775	3.64657	3.45710	9.72182	0.03581
1595.796	3.79406	3.24221	10.04213	-0.31258
1599.776	3.94732	3.23471	8.11216	2.57257
1603.776	3.74617	3.15031	9.57479	-0.04511
1607.774	3.67032	3.13901	10.31804	-0.54342
1611.775	3.91516	3.04812	9.27071	-0.01447
1615.773	3.67699	3.08457	9.53443	-2.28108
1619.777	3.65302	3.24508	10.02709	-1.86192
1623.772	3.66098	3.58445	10.40697	0.14053
1627.769	3.82497	3.25495	9.44687	-1.44135
1631.731	3.68980	3.23570	9.00172	2.73029
1635.731	3.68527	3.29491	10.13972	1.80866
1639.774	3.79695	3.32234	9.00164	2.16387
1643.776	3.60633	3.46219	9.35962	1.94375
1647.775	3.65591	3.51317	9.27158	1.52779
1651.776	3.57397	3.36608	10.56793	0.88531
1655.784	3.66765	3.21924	9.06964	1.83110
1659.795	3.55335	0.98660	8.15535	2.09733
1663.753	3.57295	2.57240	9.80775	2.09311
1667.774	3.66879	2.98600	10.52312	1.53035
1671.773	3.66214	3.06397	9.84363	1.67284
1675.797	3.66990	2.95966	9.15512	1.90835
1679.777	3.68955	3.48821	8.92910	2.57301
1683.774	3.69103	3.47059	9.60584	2.02666
1687.773	3.59117	3.61345	9.93694	0.90381
1691.798	3.79423	3.47888	8.70881	-1.55073
1695.750	3.57790	2.11258	8.83011	-1.67329
1699.778	3.72709	1.81611	10.43450	-1.85768
1703.775	3.88043	2.76214	10.28755	0.11714
1707.799	3.76695	3.08586	8.48136	-0.91801
1711.776	3.86343	2.98076	8.83854	-0.52436
1715.776	3.77305	3.18381	8.47587	0.18957
1719.778	3.15342	3.51399	8.49233	-0.65044
1723.800	2.11090	3.68954	7.76065	0.89477
1727.774	1.67129	3.70949	7.89591	0.21517
1731.776	1.84942	3.44804	6.85466	-2.15188
1735.775	0.98985	3.90219	5.87943	-1.75090
1739.768	1.01623	2.65356	5.74325	3.39077
1743.777	1.00432	3.90336	6.11935	2.91002
1747.751	1.10852	4.03129	5.68133	2.77611
1751.778	0.86426	2.66208	5.72296	2.49118
1755.783	1.30089	2.60409	7.34179	0.48750
1759.774	1.27472	3.72997	5.62974	0.22961
1763.778	0.66565	4.00890	5.70377	-0.46682
1767.778	0.69588	2.82323	6.25200	-0.95595
1771.783	1.23059	2.19945	6.73921	-1.17002
1775.775	0.99593	4.08265	5.63473	-3.44030
1779.733	0.65774	3.67000	6.55640	-1.42876
1783.778	0.55637	2.88960	6.46828	2.31976
1787.766	1.35373	3.27350	6.93567	2.48235
1791.776	1.65304	2.38680	6.17072	2.19184
1795.779	0.49738	2.95474	6.56312	3.05997
1799.778	1.02030	3.03436	6.41111	1.82312
1803.776	0.85084	1.75952	6.47872	2.17507
1807.777	0.61029	2.22365	6.32539	2.30024
1811.778	1.21769	2.33368	6.22419	2.98395
1815.789	0.88624	2.80701	6.56505	1.59826
1819.777	0.89862	2.70462	5.75492	1.91813
1823.780	1.03885	2.76334	6.74763	2.49638
1827.781	1.06669	3.06658	6.42280	2.30621
1831.744	1.14045	2.98695	6.59780	1.97971
1835.782	1.05892	3.76731	5.71438	2.69124
1839.777	0.63312	2.43194	6.55506	2.17063
1843.778	0.91798	2.74638	6.34216	1.70135
1847.779	1.16260	2.42095	6.60387	2.21983
1851.782	1.08542	1.25796	5.62316	2.77094
1855.779	0.92557	1.87031	5.66187	1.20739
1859.777	1.06346	2.52672	5.91845	1.79967
1863.781	1.07383	2.97143	6.72465	2.69691
1867.784	0.88470	2.46583	6.37040	2.15674
1871.759	1.01030	2.57849	5.86249	1.34398
1875.780	0.97323	3.08170	6.12610	1.56111
1879.779	0.89103	3.01044	6.59892	2.58198
1883.781	0.90150	3.21278	6.21679	2.73452
1887.777	0.98839	3.44197	6.53673	2.80952
1891.777	0.98995	3.36953	6.06500	1.98069
1895.776	0.96065	3.23990	6.85402	1.94296
1899.778	0.88257	3.81607	6.13095	1.31994
1903.778	0.89294	3.60654	6.21478	2.16459
1907.736	0.89594	3.50434	6.66912	1.12124
1911.769	0.93964	3.77141	6.63764	1.02412
1915.782	0.90790	3.73374	6.11842	0.49992
1919.779	0.91205	3.75874	6.08132	-0.15747
1923.781	0.97924	3.61474	6.25080	-0.66155
1927.779	1.05880	3.63054	6.05422	1.04166
1931.783	1.22355	3.61111	6.86696	4.47450
1935.778	0.82297	3.64370	5.74104	3.67103
1939.779	0.99514	3.41443	6.19353	3.80311
1943.781	0.94192	3.50123	5.76409	3.38097
1947.781	0.96100	3.50034	6.49472	1.19091
1951.785	1.10770	3.42288	6.78157	0.83971
1955.782	1.16461	3.03367	5.85895	0.99191
1959.783	1.23918	3.40249	5.70401	0.32292
1963.788	1.05689	2.85327	5.38823	0.15586
1967.780	1.27430	2.66116	5.80685	-0.46125
1971.785	1.31922	1.64706	6.08181	-0.09543
1975.780	1.10936	2.28466	5.91234	-0.24781
1979.783	1.18408	2.70535	7.14140	0.64156
1983.736	1.22439	2.97633	5.64265	-0.49503
1987.781	1.32076	2.60340	5.76102	-0.80947
1991.780	1.32490	2.25173	6.38373	-2.42576
1995.765	1.20288	2.17462	5.64105	1.45673
1999.775	0.92108	2.43604	5.85664	3.42012
2003.780	1.17260	2.43662	6.15696	2.90277
2007.780	1.29943	2.26969	7.47880	3.39640
2011.786	1.24801	2.63496	5.97754	3.91918
2015.780	1.07227	2.64675	6.04600	2.91133
2019.782	1.10713	2.74463	5.61940	1.57417
2023.780	1.12680	3.25874	5.59595	3.20376
2027.788	1.00911	3.53745	6.15191	0.82505
2031.780	1.20197	3.91950	6.55324	0.12746
2035.783	3.23314	2.76034	9.36769	-0.53923
2039.745	5.29268	2.26599	10.05262	-1.02895
2043.786	5.74993	1.33444	11.37643	-0.53629
2047.782	7.82024	-0.38834	13.80348	-1.14677
2051.740	7.91061	-0.21863	14.64859	-2.33613
2055.781	8.30886	0.39087	12.84744	-0.87872
2059.780	8.33129	0.63326	14.04706	-2.12826
2063.783	8.59572	0.71918	15.34769	-2.56309
2067.782	8.48571	1.03505	15.34587	-2.29483
2071.787	8.62037	0.90616	15.73538	-1.54494
2075.677	8.70359	0.89321	15.85568	-2.90549
2079.760	8.62532	0.97700	15.59395	-2.02048
2083.781	8.67517	0.94547	15.94454	-3.05824
2087.783	8.68841	1.12076	15.62979	-2.42341
2091.785	8.66547	1.08485	15.40263	-2.61275
2095.780	8.73366	1.11149	15.45650	-3.43967
2099.779	8.69348	1.22183	14.11582	-3.39132
2103.783	8.49214	1.30686	14.09047	-3.38910
2107.787	8.40329	1.43909	14.49604	-3.70087
2111.784	8.58444	1.31099	14.53000	-4.20336
2115.780	8.30357	1.37476	14.91696	-3.21355
2119.739	8.44118	1.35813	15.52089	-2.26512
2123.786	8.24349	1.66859	15.09458	-1.82111
2127.781	8.66794	1.54628	15.45640	-3.06204
2131.781	8.36163	1.48436	15.48089	-3.00272
2135.739	8.24132	1.31955	15.75191	-3.33187
2139.787	8.04983	1.13357	15.29783	-1.55593
2143.781	8.35192	1.25494	15.22137	-1.23290
2147.781	8.25732	1.58115	15.31784	-1.03830
2151.781	8.34232	2.22136	14.72947	2.77762
2155.668	7.74415	1.24435	14.37331	-3.32557
2159.781	8.29936	-0.32546	14.03120	-3.21654
2163.756	8.43693	0.69605	15.15242	-2.72440
2167.783	8.25336	1.08201	15.26279	-1.33130
2171.682	8.29669	1.61515	15.30092	-0.74844
2175.781	8.33610	1.42163	15.90277	-0.77987
2179.788	8.63879	1.56103	16.06612	-0.91376
2183.785	8.36521	1.39857	16.18997	-0.79793
2187.649	8.13648	1.03838	16.35596	-0.64008
2191.741	8.23493	1.34236	16.82718	-0.49244
2195.740	8.22599	1.31314	14.35983	0.31044
2199.781	8.26111	0.66979	14.75539	-0.33956
2203.745	8.20437	1.26832	15.28053	-0.58364
2207.781	8.17024	1.13790	14.83930	-0.40426
2211.782	8.11430	1.19169	14.75451	-0.50151
2215.785	8.23194	1.19722	15.79103	-2.82752
2219.681	8.23680	1.28862	15.53541	-3.20173
2223.786	8.32429	1.26693	15.44933	-3.08563
2227.785	8.36681	1.36134	15.33070	-3.87243
2231.785	8.54523	1.42849	15.15198	-3.26955
2235.680	8.58670	1.66871	15.20570	-3.38367
2239.784	8.57012	1.28700	15.25626	-3.18511
2243.786	8.53394	0.75286	15.41810	-3.14389
2247.779	8.51566	0.88953	15.23759	-3.06530
2251.788	8.54901	1.54112	15.02654	-0.79371
2255.740	8.39533	2.09103	14.13122	1.03546
2259.786	8.44574	1.88419	14.65929	2.39235
2263.788	8.73979	0.77074	14.09843	-3.03159
2267.680	8.56158	1.63319	15.12081	-1.42898
2271.784	8.24660	2.05424	14.35107	1.21756
2275.662	8.40176	0.34988	14.29729	-0.74397
2279.661	8.55018	0.98724	14.85516	-3.09302
2283.656	8.50001	1.75267	15.44003	-1.52667
2287.658	8.72862	0.74446	15.38696	-1.01705
2291.647	8.65024	0.53259	15.99709	-0.30131
2295.652	8.77960	1.25756	16.01757	-1.62397
2299.680	8.91825	1.42829	14.75356	-3.89550
2303.661	9.07767	1.84439	14.40642	-3.30637
2307.661	8.30869	2.76247	14.78902	-2.37414
2311.660	8.53445	3.35435	14.64447	-2.33937
2315.659	8.94244	2.10049	16.13984	-3.96549
2319.660	9.59361	2.37610	14.34065	-1.69144
2323.617	11.57824	1.79239	15.63062	-2.11961
2327.660	10.80180	1.73389	18.41205	-1.49723
2331.663	11.22907	1.04763	19.82061	-1.53859
2335.631	11.53048	-0.37064	20.21763	-3.22919
2339.661	11.20288	-0.29641	19.51038	-3.73487
2343.660	12.00967	0.85074	19.36192	-2.42021
2347.683	11.72672	0.40950	20.05447	-2.33587
2351.661	11.91270	0.83836	19.10729	-1.78753
2355.659	11.77660	0.81774	19.62046	-1.60413
2359.659	11.39644	1.03671	19.65650	-1.66667
2363.682	11.47917	0.96510	19.38394	-1.96503
2367.660	11.30930	1.03786	19.48928	-1.78874
2371.662	11.62082	0.95282	19.61555	-1.80166
2375.618	11.54916	0.60933	19.60419	-1.64011
2379.683	11.62397	0.80505	19.61718	-2.27491
2383.664	11.77377	-0.16768	19.62914	-1.84684
2387.662	11.47243	0.52289	19.76520	-4.13691
2391.618	11.32221	0.81193	19.80016	-4.22961
2395.653	11.42818	1.48093	19.99633	-4.20813
2399.659	11.35031	1.26402	19.81973	-3.44403
2403.660	11.57017	0.70619	19.70959	-2.89366
2407.657	11.73735	-0.16505	18.07210	-2.70338
2411.664	11.78564	0.03953	18.73281	-1.66457
2415.658	11.82285	0.35493	19.20121	-1.38889
2419.655	11.93128	0.29860	19.48667	-1.94144
2423.663	11.72312	0.58664	19.60774	-1.77188
2427.653	11.44053	0.90953	19.76924	-1.94660
2431.660	11.53372	1.53527	18.96848	-1.40787
2435.661	11.40436	1.24474	19.39756	-2.09287
2439.664	11.65849	0.87369	17.79541	-1.61722
2443.682	11.91320	0.30220	18.75124	-2.72181
2447.664	11.88157	0.81059	19.32805	-2.10120
2451.662	11.90597	6.05585	23.00586	-0.73097
2455.662	20.72851	8.49107	NaN	NaN
2459.662	NaN	NaN	NaN	NaN
2463.661	NaN	NaN	NaN	NaN
2467.660	NaN	NaN	NaN	NaN
2471.617	NaN	NaN	NaN	NaN
2475.664	NaN	NaN	NaN	NaN
2479.658	NaN	NaN	NaN	NaN
2483.658	NaN	NaN	NaN	NaN
2487.662	NaN	NaN	NaN	NaN
2491.659	NaN	NaN	NaN	NaN
2495.662	NaN	NaN	NaN	NaN
2499.648	NaN	NaN	NaN	NaN
2503.618	NaN	NaN	NaN	NaN
2507.619	NaN	NaN	NaN	NaN
2515.662	NaN	NaN	NaN	NaN
2519.662	NaN	NaN	NaN	NaN
2523.663	NaN	NaN	NaN	NaN
2527.620	NaN	NaN	NaN	NaN
2531.661	NaN	NaN	NaN	NaN
2535.660	NaN	NaN	NaN	NaN
2539.664	NaN	NaN	NaN	NaN
2543.672	NaN	NaN	NaN	NaN
2547.664	NaN	NaN	NaN	NaN
2551.660	NaN	NaN	NaN	NaN
2555.619	NaN	NaN	NaN	NaN
2563.658	NaN	NaN	NaN	NaN
2567.690	NaN	NaN	NaN	NaN
2571.619	NaN	NaN	NaN	NaN
2575.621	NaN	NaN	19.40065	3.05938
2579.665	NaN	NaN	NaN	NaN
2583.673	NaN	NaN	NaN	NaN
2587.659	NaN	NaN	22.71956	2.60275
2591.666	NaN	NaN	NaN	NaN
2595.620	NaN	NaN	NaN	NaN
2599.687	NaN	NaN	NaN	NaN
2603.664	NaN	NaN	20.43010	0.48499
2607.666	NaN	NaN	19.55017	-0.09605
2611.620	NaN	NaN	19.88422	-0.29118
2615.665	NaN	NaN	19.29182	-0.30591
2619.665	15.01730	13.53102	19.64336	-0.21032
2623.657	14.50504	13.80914	19.62835	0.76917
2627.664	11.60830	13.98080	16.54784	1.54954
2631.625	11.90200	14.43184	17.20881	-4.50556
2635.622	NaN	NaN	19.23062	-3.52061
2639.664	9.37624	2.58468	19.42489	-2.30089
2643.663	9.62446	2.40927	19.07722	-2.10248
2647.666	9.90171	2.45250	19.41951	-1.81677
2651.665	10.95122	2.45962	17.53656	-0.76004
2655.669	10.11093	2.56692	17.97329	-1.08427
2659.665	12.80893	8.91447	16.37012	-0.66797
2663.658	13.09614	8.82485	17.72124	-0.58255
2667.643	10.80002	2.65887	17.66963	0.32411
2671.664	10.00875	9.44948	18.02779	-0.42560
2675.669	10.47748	9.24820	18.08901	-0.71757
2679.686	10.47938	9.12223	18.36114	-1.50397
2683.665	10.61001	2.61074	17.71559	-1.56557
2687.664	10.64242	2.37319	16.09015	-0.81017
2691.664	10.71993	1.86903	16.33653	-2.38579
2695.669	10.56246	1.72157	17.38048	-3.23346
2699.668	10.36999	1.64556	17.75244	-4.09098
2703.665	10.22361	1.49257	17.41176	-2.98282
2707.656	10.28777	1.39866	16.84421	-2.64294
2711.659	9.79879	1.52041	16.26804	-3.04977
2715.665	9.79838	1.47896	14.97050	-3.07980
2719.666	7.65963	2.11631	14.79769	-1.20535
2723.668	7.15906	2.10463	14.62914	-2.90255
2727.659	6.39469	3.38329	11.01974	-0.76295
2731.622	5.97472	3.95600	10.67255	0.02330
2735.641	5.84161	3.53314	10.61488	-0.03046
2739.666	5.72674	3.93039	10.57447	-0.16647
2743.666	5.22576	4.64098	11.02918	-0.28005
2747.667	5.10475	3.89597	11.28025	-0.66802
2751.637	5.17486	4.06715	8.50496	-0.12905
2755.668	5.02255	3.82667	8.49585	1.30555
2759.661	4.94822	2.59516	10.10040	1.14535
2763.677	5.07732	2.90973	10.61205	0.99987
2767.667	4.96679	2.87143	10.64827	0.67658
2771.666	4.90627	3.72463	10.33010	0.72934
2775.664	4.80647	3.65867	9.27192	1.93050
2779.667	5.01179	3.81289	10.61284	2.51229
2783.669	4.72457	4.24014	10.65139	1.70342
2787.670	4.69421	4.37695	10.86478	1.68552
2791.660	4.96342	4.08774	9.26367	1.97234
2795.668	5.03240	3.11429	9.98165	0.75341
2799.669	5.24097	3.18095	10.34898	2.30640
2803.668	5.29565	3.25333	10.36795	2.43935
2807.668	5.17769	2.96609	10.68619	0.56770
2811.666	5.23915	3.05266	10.24889	-2.23863
2815.625	5.45840	2.88939	10.38466	2.41194
2819.671	5.25680	2.99893	10.29808	2.51954
2823.660	4.81335	3.14396	10.16848	2.39760
2827.669	5.32466	3.03036	9.65539	0.99941
2831.664	5.19475	3.27446	9.91211	2.19863
2835.625	5.38334	3.45721	10.05365	1.31314
2839.668	4.97539	3.94400	10.08597	1.64583
2843.669	5.15736	4.09627	9.75705	2.56520
2847.671	5.14739	4.38163	10.29774	1.23157
2851.669	5.07749	4.42165	10.67080	2.38767
2855.669	4.92876	4.20449	9.62970	1.29485
2859.668	5.03669	3.89337	10.31182	1.42352
2863.670	5.06432	3.82069	10.68427	0.91390
2867.671	4.88853	3.81084	9.42443	1.67036
2871.661	5.30183	2.58578	9.82961	1.23431
2875.652	5.54793	1.70737	10.81161	0.63505
2879.669	5.03484	2.64602	9.33744	0.78214
2883.669	4.96051	3.41043	8.88772	0.67354
2887.669	5.34946	3.07437	10.18885	0.13760
2891.667	5.18131	3.05724	11.03181	0.02685
2895.669	4.96253	3.82362	9.95562	0.75359
2899.670	4.67111	3.53182	8.48311	0.86589
2903.671	5.11590	3.58456	9.81749	0.21814
2907.667	5.30707	3.91124	10.83369	0.47557
2911.671	5.22072	4.10278	10.99618	-0.14062
2915.660	5.13282	4.19203	9.30687	0.79164
2919.676	5.14485	3.33586	10.20728	0.85012
2923.671	5.27983	2.76381	9.76777	0.95684
2927.671	5.28970	2.48268	10.86785	0.94709
2931.668	5.15527	3.22029	10.15709	1.72949
2935.630	5.05432	4.16612	9.30278	1.18963
2939.627	5.10815	3.91861	10.51635	-3.56706
2943.627	5.30653	3.67710	9.77544	-1.96056
2947.667	5.38208	3.50713	10.79392	-2.36986
2951.568	5.06584	3.94156	11.11862	-1.81094
2955.670	5.25909	4.10595	13.01986	-1.34190
2959.640	5.09975	3.81750	10.65839	0.52796
2963.671	5.07180	3.86088	10.35078	0.32704
2967.567	4.93248	2.46046	10.26682	0.78203
2971.672	4.43621	3.68197	10.27479	1.29720
2975.672	3.23744	3.78518	9.77336	1.16708
2979.673	4.33142	3.62659	6.61947	3.32368
2983.565	3.32325	3.99408	8.94230	0.52686
2987.670	3.79791	3.95388	8.40844	-2.24062
2991.668	4.53379	3.97739	10.06614	-2.25168
2995.669	3.50492	3.95373	7.95682	-2.68720
2999.658	3.30688	4.70348	8.06567	0.00074
3003.627	3.84587	4.36062	9.50981	-2.43279
3007.670	3.19061	4.96645	8.23162	-2.08347
3011.638	3.31887	4.73151	8.14105	-2.12077
3015.664	3.26661	4.17187	7.62743	-1.79855
3019.670	3.67895	4.16838	8.14854	-2.02962
3023.670	4.42839	4.00113	8.03214	-2.12695
3027.670	4.50071	2.65157	9.86018	-1.87283
3031.566	3.43833	3.39695	9.72170	-1.16357
3035.628	3.47290	2.92974	7.39374	-1.02426
3039.664	3.75252	3.09795	8.04020	-0.48958
3043.663	4.36449	3.91746	7.78813	0.04523
3047.574	4.21972	3.51055	8.04358	-0.79630
3051.672	3.54959	4.47570	8.11213	-0.51298
3055.673	3.57372	3.83850	8.20770	-0.92180
3059.671	3.78447	4.07499	8.51935	-0.25506
3063.573	3.28882	5.06548	8.53343	0.25992
3067.670	3.67035	4.71709	8.60548	-0.31141
3071.628	3.66048	4.66231	8.75601	-0.22568
3075.671	3.22289	4.81024	8.90432	-0.18562
3079.568	3.79937	4.65608	9.11934	-0.08872
3083.670	4.02408	4.54505	9.11206	-0.12695
3087.670	3.77908	4.66439	9.16245	-0.25992
3091.671	3.80100	4.58941	8.79712	-0.25453
3095.570	3.50138	4.54088	8.99373	-0.14297
3099.671	3.22930	4.01176	9.42496	-0.29382
3103.672	3.30616	3.25406	9.15529	-2.18565
3107.671	3.52761	3.09432	9.03130	-0.92475
3111.675	4.54895	4.21628	8.75002	-0.59303
3115.672	3.62237	4.68889	7.83916	1.75631
3119.675	3.74115	4.29083	7.80309	1.91212
3123.659	4.15329	3.46877	7.53235	0.45105
3127.571	3.81029	3.86599	6.92660	1.65189
3131.671	4.00527	3.55115	6.77712	-0.07220
3135.673	3.16433	3.48209	9.04923	-1.10536
3139.631	3.76151	4.67885	9.14689	-2.09209
3143.678	3.75860	3.91432	8.27120	-1.38699
3147.672	3.88327	3.92565	7.78952	-1.91282
3151.672	4.44516	3.91923	7.82377	-1.78559
3155.674	4.55423	3.50234	7.82655	-1.07687
3159.570	3.94577	2.80780	8.72306	1.63198
3163.672	3.12175	3.29909	8.24837	1.49344
3167.638	3.91215	2.83851	7.98863	0.48440
3171.675	3.79742	2.98178	7.85921	-2.08347
3175.634	4.26978	3.18009	7.76365	1.25854
3179.677	3.99721	3.89252	5.19719	1.28049
3183.672	4.41314	3.68904	7.64822	1.20805
3187.672	4.15339	3.76820	8.25452	1.51705
3191.645	4.10500	3.65085	7.31577	3.14105
3195.674	4.27659	3.67544	5.66020	3.25111
3199.675	4.24547	3.69899	6.66550	1.92044
3203.677	4.21629	3.47573	8.10875	1.10254
3207.568	4.26141	3.56218	7.81086	2.60266
3211.669	4.12824	4.74131	6.91469	3.05124
3215.677	4.21822	6.05562	6.52547	2.73202
3219.673	4.16964	5.65427	6.00533	2.93728
3223.572	4.19995	5.50369	7.34504	0.29744
3227.674	4.14485	3.69031	8.67689	0.48630
3231.675	4.27442	3.48806	7.75127	0.44228
3235.676	4.30818	3.59390	7.21247	0.18724
3239.570	4.05251	6.03744	6.80653	-0.07025
3243.673	4.35612	5.62864	7.43178	2.76996
3247.670	4.22562	5.25276	8.04034	2.90254
3251.668	4.15263	3.75723	7.85504	3.15892
3255.559	4.24083	3.70938	6.81544	1.77842
3259.631	4.19529	3.67200	6.06055	2.66412
3263.673	4.24016	5.44646	5.73566	1.56859
3267.677	4.12226	5.41063	9.15630	0.52265
3271.575	4.29187	5.29234	8.85252	0.29274
3275.678	4.17169	5.21788	7.81880	-0.10441
3279.683	4.13164	4.92970	8.21738	0.45407
3283.672	4.13261	4.93515	7.77225	0.37891
3287.572	4.15500	4.74662	7.44169	0.72900
3291.644	4.16964	5.01466	7.69446	0.48186
3295.674	4.18983	5.13923	8.04579	0.12150
3299.674	3.80248	5.39465	7.44925	0.60916
3303.574	4.14280	5.29266	7.63274	2.53218
3307.677	4.15223	4.94959	7.37431	1.54397
3311.551	4.23409	4.75559	7.33581	-0.62903
3315.549	4.26645	2.86741	5.97725	-0.23478
3319.571	4.30973	3.95780	8.10890	0.45936
3323.552	4.38080	4.34238	7.71537	1.52225
3327.550	4.31477	5.02651	7.51979	2.94843
3331.550	4.10429	5.53370	7.31652	4.07780
3335.552	4.33530	5.50680	7.43823	-0.63367
3339.517	4.47590	5.71134	7.09798	-0.12492
3343.507	4.50888	3.58800	5.41603	0.67255
3347.551	4.34650	4.14907	8.74476	-0.13555
3351.552	4.33976	3.96738	8.24541	-0.44533
3355.549	4.52999	3.75752	8.20751	0.23916
3359.549	4.06490	4.08028	7.73287	0.33275
3363.553	3.88167	5.74895	6.91315	0.58877
3367.562	4.44403	5.53853	7.20817	1.15406
3371.550	4.54705	4.73026	4.95413	0.04404
3375.552	4.11411	5.72713	7.97717	0.41962
3379.534	4.31815	5.31483	8.14762	-0.56228
3383.572	4.03018	4.70501	7.69005	-0.94960
3387.550	4.20025	4.47432	7.51210	1.03474
3391.550	4.42269	4.17925	6.93193	0.75629
3395.553	4.15265	4.20328	7.20091	2.76003
3399.553	4.24275	4.14423	7.35400	3.09417
3403.552	4.43497	3.81225	7.37787	0.88744
3407.549	4.62572	3.93665	7.47919	1.72932
3411.549	4.38706	4.40947	7.71038	2.68521
3415.577	4.15507	5.37506	6.92185	2.61123
3419.549	4.15426	5.53080	6.41699	2.01221
3423.543	4.06851	5.55943	6.08934	2.20157
3427.551	4.01564	5.74341	6.88379	0.54110
3431.546	4.62076	5.68221	8.14482	1.37211
3435.552	4.16327	5.75777	7.69502	1.21375
3439.551	3.97420	5.88742	7.78686	1.83539
3443.551	4.38339	5.70376	6.99010	2.35204
3447.552	4.19682	5.82167	6.13657	2.58689
3451.551	4.20792	5.82568	6.84524	2.73024
3455.553	4.36881	5.72761	6.49575	2.96288
3459.555	4.29414	5.79919	6.42354	2.17208
3463.553	4.12609	5.47407	5.90944	2.78200
3467.552	4.00149	5.58331	7.72622	2.76822
3471.552	3.81807	5.51033	7.77692	3.03838
3475.554	4.14655	5.41430	6.91386	3.02863
3479.530	4.22994	5.52747	7.10216	3.14509
3483.551	4.72467	5.38714	6.66543	3.43965
3487.552	4.53384	2.99281	7.28383	-0.63514
3491.554	4.51238	4.27242	7.55564	-1.34609
3495.552	4.44679	4.42118	7.21308	-0.66837
3499.510	4.62520	3.90068	7.02924	-0.90881
3503.556	4.56516	4.08147	6.82961	-0.93507
3507.547	4.47913	3.85050	7.37580	0.36765
3511.574	4.81281	3.09201	7.10844	0.18735
3515.555	4.87899	3.36300	7.38048	-0.02112
3519.555	4.88261	3.63666	6.87430	1.02421
3523.553	4.88471	3.68222	6.71728	0.55530
3527.553	4.82562	3.89088	6.88739	0.79012
3531.553	4.89414	3.75625	6.65669	1.12206
3535.553	4.73660	4.06932	6.53825	1.36188
3539.555	4.72539	4.22392	6.42381	1.23079
3543.577	4.71075	4.58914	6.22542	2.21198
3547.510	4.71531	4.95447	6.35503	2.00740
3551.553	4.50352	4.86141	6.32522	2.10958
3555.553	4.66068	5.26803	6.50763	1.96749
3559.555	4.62249	5.21221	6.52877	2.27637
3563.552	4.49884	5.55907	9.03549	2.46250
3567.554	4.35694	5.67290	6.67782	2.32307
3571.554	4.13063	6.15097	6.76351	2.77236
3575.516	4.26536	6.39565	6.94878	2.73739
3579.554	4.05866	6.31412	7.01700	3.06041
3583.556	4.31269	5.91966	6.90693	3.14357
3587.532	4.67061	5.91053	6.83917	3.02687
3591.525	4.64364	5.66710	7.01340	2.91278
3595.510	4.23061	5.41689	7.06730	3.13168
3599.555	4.49400	5.63532	7.06569	3.51185
3603.555	4.40335	5.51134	6.68558	3.21376
3607.547	4.44129	4.79863	6.75813	3.36646
3611.541	4.40359	4.55522	6.15804	1.70891
3615.510	4.85152	4.07342	5.68209	1.98718
3619.552	4.64719	3.91237	5.85708	2.32386
3623.547	4.77301	3.74486	5.43029	2.82088
3627.554	4.58925	4.09960	6.76792	1.33776
3631.511	4.44452	3.89808	6.52451	2.40958
3635.512	2.78822	4.12438	3.87991	1.84908
3639.554	1.20383	4.53410	5.26009	2.17785
3643.553	0.97063	4.20883	2.46104	3.08414
3647.557	0.35258	4.28068	1.64149	3.46441
3651.557	-0.38137	5.02109	0.99268	0.79453
3655.529	-3.92013	5.30379	-1.85648	0.07384
3659.556	-5.56709	5.78759	-1.89496	0.51555
3663.554	-4.50229	5.82565	-2.21360	1.87097
3667.556	-4.41637	5.59837	-2.46744	2.79858
3671.555	-4.33362	5.76720	-3.31823	3.04765
3675.556	-4.15853	6.17651	-4.18751	0.58344
3679.555	-3.82684	6.22539	-2.36562	1.75375
3683.514	-4.00410	6.17617	-2.44482	1.90451
3687.556	-4.39104	6.76857	-2.47363	-0.05236
3691.556	-4.44171	6.73126	-2.84903	1.20379
3695.555	-4.49622	6.07544	-3.22074	0.20260
3699.556	-4.30578	6.05489	-4.13453	0.48004
3703.561	-3.25169	6.04058	-2.72030	1.40040
3707.555	-4.36816	5.87706	-2.57546	1.48435
3711.541	-4.44346	5.65835	-2.18505	1.21436
3715.555	-4.40789	5.49535	-3.13781	1.06753
3719.551	-4.07984	5.34972	-3.09270	1.31374
3723.558	-4.51904	5.20466	-2.79783	0.95775
3727.556	-4.93856	5.32947	-2.65119	0.21874
3731.555	-4.61188	6.83667	-2.66224	-1.12485
3735.517	-4.50680	5.79499	-2.58301	1.26358
3739.557	-4.34398	5.24648	-2.39061	1.19282
3743.556	-4.66218	5.39663	-2.37354	1.40882
3747.555	-4.82530	5.16892	-2.77337	3.67532
3751.520	-5.15177	5.27205	-4.03804	3.42775
3755.557	-4.87034	6.04183	-2.73231	2.20779
3759.560	1.93004	2.52243	-2.68861	2.97143
3763.556	-4.45148	6.28975	-2.59101	3.28242
3767.555	-5.10046	6.31019	-3.13289	3.25461
3771.557	-5.59868	5.72324	-2.79466	2.75149
3775.558	-4.77126	5.65954	-2.49944	2.85986
3779.556	-4.26770	5.54237	-2.64180	3.18465
3783.579	-5.05302	5.57906	-2.83714	3.12643
3787.557	-5.36730	5.44922	-3.05405	3.29950
3791.561	-5.46913	6.23744	-2.64889	2.82337
3795.536	-3.10539	6.10993	-2.66253	3.09254
3799.530	-5.19527	5.58319	-2.60721	3.50405
3803.557	-5.02462	5.30765	-2.79642	3.59303
3807.556	-2.74346	6.01703	-3.05922	3.64097
3811.560	-3.21226	5.44534	-3.00029	3.43209
3815.558	-3.98879	5.72065	-2.02872	2.91379
3819.561	-4.26753	5.29034	-2.53934	3.24096
3823.567	-3.96316	5.17797	-2.77884	3.53191
3827.557	-4.31884	5.14031	-2.80855	3.30465
3831.563	-3.84866	5.22844	-2.67088	2.59291
3835.518	-4.01796	4.96304	-2.86093	2.01289
3839.560	-4.35511	4.86602	-3.01225	0.99222
3843.558	-4.54814	4.90466	-2.85341	1.22105
3847.559	-3.41142	6.12842	-2.97470	1.44719
3851.558	-3.52704	6.17229	-2.55777	2.55368
3855.558	-3.49240	6.02298	-2.54999	2.15053
3859.556	-3.69516	5.55316	-2.41821	2.26786
3863.565	-3.63426	5.42030	-2.35102	2.07124
3867.561	-3.62885	5.81020	-2.28489	2.72989
3871.559	-3.70534	5.73494	-1.06989	1.91961
3875.558	-3.88465	5.64165	-1.50772	2.84947
3879.563	-3.86499	5.99476	-1.16334	3.15634
3883.562	-3.88814	6.09634	-0.86994	6.31098
3887.542	-3.69612	8.62621	2.10067	6.52143
3891.562	-1.57163	6.09854	-6.42339	7.03760
3895.562	-10.09809	13.98586	-2.10359	5.08680
3899.561	NaN	NaN	NaN	NaN
3903.559	NaN	NaN	NaN	NaN
3907.557	NaN	NaN	NaN	NaN
3911.559	NaN	NaN	NaN	NaN
3915.559	NaN	NaN	NaN	NaN
3919.558	NaN	NaN	NaN	NaN
3923.561	NaN	NaN	NaN	NaN
3927.560	NaN	NaN	NaN	NaN
3931.559	NaN	NaN	NaN	NaN
3935.567	NaN	NaN	NaN	NaN
3939.516	NaN	NaN	NaN	NaN
3943.560	NaN	NaN	NaN	NaN
3947.564	NaN	NaN	NaN	NaN
3951.557	NaN	NaN	NaN	NaN
3955.517	NaN	NaN	NaN	NaN
3959.560	NaN	NaN	NaN	NaN
3963.525	NaN	NaN	NaN	NaN
3967.558	NaN	NaN	NaN	NaN
3971.516	NaN	NaN	NaN	NaN
3975.559	NaN	NaN	NaN	NaN
3979.562	NaN	NaN	NaN	NaN
3983.561	NaN	NaN	NaN	NaN
3987.520	NaN	NaN	NaN	NaN
3991.561	NaN	NaN	NaN	NaN
3995.560	NaN	NaN	NaN	NaN
3999.560	NaN	NaN	NaN	NaN
4003.553	NaN	NaN	9.13110	13.55070
4007.562	NaN	NaN	8.83498	9.44553
4011.563	NaN	NaN	8.24305	13.31042
4015.518	NaN	NaN	7.04112	4.81484
4019.458	NaN	NaN	8.72306	4.72608
4023.517	NaN	NaN	9.36206	6.30514
4027.560	NaN	NaN	9.95165	5.32667
4031.562	NaN	NaN	9.54701	4.81611
4035.564	3.31195	6.29171	5.85045	4.29834
4039.562	6.24857	10.18696	5.45491	8.56589
4043.464	10.58009	8.25783	10.06491	7.82725
4047.553	10.98358	10.04231	11.16621	5.24751
4051.563	3.46202	4.95896	6.10249	5.37541
4055.562	12.23075	7.06571	9.44083	3.71318
4059.567	12.42834	7.02220	9.16337	3.48540
4063.561	12.66521	6.39127	4.43068	5.15412
4067.564	11.07675	5.23977	6.72766	3.02969
4071.562	7.12493	4.85099	11.50437	2.28583
4075.461	3.75363	5.54193	8.09572	2.75389
4079.562	4.38845	4.75721	9.38414	2.03623
4083.565	3.78729	4.43208	5.83729	2.04980
4087.532	4.18929	5.10569	7.66748	2.14831
4091.521	4.33890	6.07569	5.37155	3.25720
4095.562	4.36997	5.09294	8.16136	3.47189
4099.565	4.30467	4.37502	5.46077	2.62993
4103.561	NaN	NaN	7.56469	2.66316
4107.459	NaN	NaN	6.95320	3.13847
4111.561	NaN	NaN	6.71373	2.13412
4115.563	4.18225	5.08044	6.83428	1.30912
4119.565	NaN	NaN	7.75034	2.51688
4123.458	NaN	NaN	6.89534	3.00236
4127.520	3.73873	6.82145	7.00441	2.99713
4131.559	NaN	NaN	6.75637	2.51729
4135.520	NaN	NaN	7.63325	3.00677
4139.566	3.22873	6.81071	7.97758	2.50814
4143.561	NaN	NaN	7.11975	1.60262
4147.562	NaN	NaN	8.24791	2.94408
4151.565	NaN	NaN	6.83978	1.47062
4155.558	NaN	NaN	6.87403	1.00870
4159.562	NaN	NaN	6.91319	3.12983
4163.562	NaN	NaN	6.89561	-2.15534
4167.565	NaN	NaN	NaN	NaN
4175.561	NaN	NaN	6.78077	3.74081
4179.561	NaN	NaN	8.39472	0.99770
4183.569	NaN	NaN	7.90937	1.54890
4187.560	NaN	NaN	7.65656	2.20881
4191.563	NaN	NaN	7.14739	-0.49326
4195.565	NaN	NaN	6.63056	0.77702
4199.563	NaN	NaN	6.91527	3.30921
4203.564	NaN	NaN	7.03685	-0.45767
4207.564	NaN	NaN	6.70105	1.16397
4211.541	NaN	NaN	7.68701	1.99047
4215.575	NaN	NaN	6.70421	2.96350
4219.562	NaN	NaN	7.07051	-2.09565
4223.562	NaN	NaN	7.40523	0.27052
4227.518	NaN	NaN	7.04753	0.61942
4231.560	NaN	NaN	6.34993	2.38388
4235.563	NaN	NaN	7.30251	3.36607
4239.564	NaN	NaN	7.58251	-1.30745
4243.562	NaN	NaN	6.80817	0.15675
4247.566	NaN	NaN	6.32650	2.00161
4251.562	NaN	NaN	6.06159	2.09654
4255.520	NaN	NaN	6.17401	2.58323
4259.520	NaN	NaN	6.84920	0.99408
4263.562	NaN	NaN	6.73223	0.70750
4267.561	NaN	NaN	5.31123	0.10422
4271.562	NaN	NaN	4.70397	0.13879
4275.559	NaN	NaN	2.65560	0.28975
4279.563	NaN	NaN	2.72402	1.88416
4283.563	NaN	NaN	2.87225	0.45604
4287.565	NaN	NaN	2.72781	2.73942
4291.565	NaN	NaN	2.52797	2.81757
4295.519	NaN	NaN	4.20506	0.24195
4299.563	NaN	NaN	3.06709	0.06174
4303.566	NaN	NaN	5.28475	0.44904
4307.564	NaN	NaN	2.93002	-0.15153
4311.564	NaN	NaN	3.98704	0.48652
4315.563	NaN	NaN	3.01240	-0.25693
4319.566	NaN	NaN	4.37391	1.02010
4323.567	NaN	NaN	2.88609	0.00258
4327.566	NaN	NaN	4.59707	-0.18958
4331.566	NaN	NaN	3.11480	-0.07280
4335.551	NaN	NaN	3.19333	-0.58052
4339.438	NaN	NaN	3.96755	-0.46695
4343.437	NaN	NaN	2.90666	-0.52849
4347.441	NaN	NaN	2.63190	-0.52742
4351.440	NaN	NaN	3.89799	-0.61702
4355.442	NaN	NaN	4.51591	-0.48891
4359.439	NaN	NaN	2.17447	0.20173
4363.396	NaN	NaN	2.23989	0.05654
4367.441	NaN	NaN	2.76086	-0.08754
4371.439	NaN	NaN	4.18067	-0.18141
4375.438	NaN	NaN	4.00067	3.19239
4379.445	NaN	NaN	2.86178	2.76837
4383.441	NaN	NaN	2.45510	2.26388
4387.442	NaN	NaN	1.70782	2.72809
4391.443	NaN	NaN	2.24953	1.30052
4395.440	NaN	NaN	2.76710	2.08596
4399.442	NaN	NaN	2.54546	1.72293
4403.439	NaN	NaN	2.53521	1.23998
4407.441	NaN	NaN	2.62945	1.82930
4411.440	NaN	NaN	2.46617	2.45190
4415.441	NaN	NaN	2.64683	2.61352
4419.447	NaN	NaN	1.86305	2.61887
4423.430	NaN	NaN	2.55153	4.99176
4427.431	NaN	NaN	3.44535	0.75108
4431.397	NaN	NaN	2.95760	0.33931
4435.440	NaN	NaN	2.68707	1.40069
4439.443	NaN	NaN	2.43726	1.24409
4443.398	NaN	NaN	5.22286	0.79858
4447.442	NaN	NaN	3.24516	0.65521
4451.443	NaN	NaN	1.30439	1.55683
4455.442	NaN	NaN	3.28996	2.78590
4459.440	NaN	NaN	2.57697	0.68878
4463.440	NaN	NaN	1.67990	1.21003
4467.414	NaN	NaN	3.53322	2.72675
4471.440	NaN	NaN	3.36159	2.74600
4475.442	NaN	NaN	3.13056	1.35394
4479.437	NaN	NaN	1.84503	1.37217
4483.440	NaN	NaN	3.45049	0.65626
4487.443	NaN	NaN	3.50583	0.80390
4491.437	NaN	NaN	2.66038	1.81205
4495.441	NaN	NaN	4.82380	1.66455
4499.397	NaN	NaN	1.48801	2.75243
4503.441	NaN	NaN	3.37888	3.02814
4507.402	NaN	NaN	3.87714	2.36315
4511.438	NaN	NaN	2.81501	2.32257
4515.442	NaN	NaN	2.93577	1.73940
4519.441	NaN	NaN	4.16433	1.08135
4523.444	NaN	NaN	3.41417	0.69555
4527.440	NaN	NaN	4.11915	0.85388
4531.440	NaN	NaN	2.43635	0.68360
4535.441	NaN	NaN	1.79616	1.58424
4539.444	NaN	NaN	1.66993	2.34281
4543.445	NaN	NaN	1.67184	1.84646
4547.441	NaN	NaN	1.57208	1.63908
4551.437	NaN	NaN	2.20468	2.52618
4555.442	NaN	NaN	NaN	NaN
4559.440	NaN	NaN	NaN	NaN
4563.438	NaN	NaN	NaN	NaN
4567.401	NaN	NaN	NaN	NaN
4571.440	NaN	NaN	NaN	NaN
4575.439	NaN	NaN	NaN	NaN
4579.441	NaN	NaN	NaN	NaN
4583.438	NaN	NaN	NaN	NaN
4587.442	NaN	NaN	NaN	NaN
4591.438	NaN	NaN	NaN	NaN
4595.438	NaN	NaN	NaN	NaN
4599.441	NaN	NaN	NaN	NaN
4603.438	NaN	NaN	NaN	NaN
4607.438	NaN	NaN	NaN	NaN
4611.439	NaN	NaN	NaN	NaN
4615.438	NaN	NaN	NaN	NaN
4619.440	NaN	NaN	NaN	NaN
4623.439	NaN	NaN	NaN	NaN
4627.440	NaN	NaN	NaN	NaN
4631.428	NaN	NaN	NaN	NaN
4635.432	NaN	NaN	NaN	NaN
4639.399	NaN	NaN	NaN	NaN
4643.443	NaN	NaN	NaN	NaN
4647.439	NaN	NaN	NaN	NaN
4651.441	NaN	NaN	NaN	NaN
4655.430	NaN	NaN	NaN	NaN
4659.440	NaN	NaN	NaN	NaN
4663.440	NaN	NaN	NaN	NaN
4667.440	NaN	NaN	NaN	NaN
4671.440	NaN	NaN	NaN	NaN
4675.407	NaN	NaN	NaN	NaN
4679.440	NaN	NaN	NaN	NaN
4683.440	NaN	NaN	NaN	NaN
4687.444	NaN	NaN	NaN	NaN
4691.444	NaN	NaN	NaN	NaN
4695.442	NaN	NaN	NaN	NaN
4699.439	NaN	NaN	NaN	NaN
4703.443	NaN	NaN	NaN	NaN
4707.444	NaN	NaN	NaN	NaN
4711.442	NaN	NaN	NaN	NaN
4715.423	NaN	NaN	NaN	NaN
4719.439	NaN	NaN	NaN	NaN
4723.446	NaN	NaN	NaN	NaN
4727.437	NaN	NaN	NaN	NaN
4731.438	0.19953	5.12309	5.78654	1.32502
4735.463	0.32263	5.86786	4.33113	0.28896
4739.403	0.37482	5.54272	1.92721	1.64544
4743.447	2.46843	5.34868	4.42979	2.16477
4747.445	8.80982	8.16910	6.74481	2.37067
4751.450	-6.32502	6.87652	14.73492	5.99419
4755.446	NaN	NaN	3.87314	0.19712
4759.443	NaN	NaN	NaN	NaN
4763.446	NaN	NaN	NaN	NaN
4767.440	NaN	NaN	NaN	NaN
4771.447	NaN	NaN	NaN	NaN
4775.445	NaN	NaN	NaN	NaN
4779.445	NaN	NaN	NaN	NaN
4783.447	NaN	NaN	NaN	NaN
4787.451	NaN	NaN	NaN	NaN
4791.448	NaN	NaN	NaN	NaN
4795.448	NaN	NaN	NaN	NaN
4799.418	NaN	NaN	NaN	NaN
4803.445	NaN	NaN	NaN	NaN
4807.448	NaN	NaN	NaN	NaN
4811.444	NaN	NaN	NaN	NaN
4815.405	NaN	NaN	NaN	NaN
4819.445	NaN	NaN	NaN	NaN
4823.415	NaN	NaN	NaN	NaN
4827.445	NaN	NaN	NaN	NaN
4831.449	NaN	NaN	NaN	NaN
4835.450	NaN	NaN	NaN	NaN
4839.404	NaN	NaN	NaN	NaN
4843.436	NaN	NaN	NaN	NaN
4847.446	NaN	NaN	NaN	NaN
4851.449	NaN	NaN	NaN	NaN
4855.446	NaN	NaN	NaN	NaN
4859.405	NaN	NaN	4.36671	9.35894
4863.450	NaN	NaN	3.58559	3.10261
4867.446	NaN	NaN	2.37790	0.20806
4871.449	NaN	NaN	2.63908	-3.65684
4875.404	NaN	NaN	2.56864	0.53212
4879.450	NaN	NaN	2.24081	-3.41036
4883.406	NaN	NaN	2.94228	-0.49292
4887.459	NaN	NaN	0.28344	-2.67296
4891.407	NaN	NaN	5.68357	0.66226
4895.451	NaN	NaN	5.43209	3.33853
4899.448	NaN	NaN	6.37596	2.73475
4903.449	NaN	NaN	6.71645	1.99089
4907.408	NaN	NaN	7.40140	1.16103
4911.448	NaN	NaN	8.36020	0.81986
4915.447	NaN	NaN	8.24468	-0.23109
4919.449	NaN	NaN	NaN	NaN
4923.456	NaN	NaN	NaN	NaN
4927.444	NaN	NaN	NaN	NaN
4931.447	NaN	NaN	NaN	NaN
4935.446	NaN	NaN	NaN	NaN
4939.449	NaN	NaN	NaN	NaN
4943.450	NaN	NaN	NaN	NaN
4947.416	NaN	NaN	NaN	NaN
4951.447	NaN	NaN	NaN	NaN
4955.449	NaN	NaN	NaN	NaN
4959.448	NaN	NaN	NaN	NaN
4963.447	NaN	NaN	NaN	NaN
4967.449	NaN	NaN	NaN	NaN
4971.449	NaN	NaN	NaN	NaN
4975.448	NaN	NaN	NaN	NaN
4979.451	NaN	NaN	NaN	NaN
4983.450	NaN	NaN	NaN	NaN
4987.436	NaN	NaN	NaN	NaN
4991.454	NaN	NaN	NaN	NaN
4995.452	NaN	NaN	NaN	NaN
4999.449	NaN	NaN	NaN	NaN
5003.449	NaN	NaN	NaN	NaN
5007.431	NaN	NaN	NaN	NaN
5011.448	NaN	NaN	NaN	NaN
5015.451	NaN	NaN	NaN	NaN
5019.450	NaN	NaN	NaN	NaN
5023.453	NaN	NaN	NaN	NaN
5027.448	NaN	NaN	NaN	NaN
5031.456	NaN	NaN	NaN	NaN
5035.453	NaN	NaN	NaN	NaN
5039.453	NaN	NaN	NaN	NaN
5043.407	NaN	NaN	NaN	NaN
5047.440	NaN	NaN	NaN	NaN
5051.442	NaN	NaN	NaN	NaN
5055.451	NaN	NaN	NaN	NaN
5059.452	NaN	NaN	NaN	NaN
5063.453	NaN	NaN	NaN	NaN
5067.454	NaN	NaN	NaN	NaN
5071.450	NaN	NaN	NaN	NaN
5075.452	NaN	NaN	NaN	NaN
5079.453	NaN	NaN	NaN	NaN
5083.451	NaN	NaN	NaN	NaN
5087.451	NaN	NaN	NaN	NaN
5091.422	NaN	NaN	NaN	NaN
5095.450	NaN	NaN	NaN	NaN
5099.450	NaN	NaN	NaN	NaN
5103.451	NaN	NaN	NaN	NaN
5107.449	NaN	NaN	NaN	NaN
5111.451	NaN	NaN	NaN	NaN
5115.451	NaN	NaN	NaN	NaN
5119.453	NaN	NaN	NaN	NaN
5123.453	NaN	NaN	NaN	NaN
5127.450	NaN	NaN	NaN	NaN
5131.451	NaN	NaN	NaN	NaN
5135.449	NaN	NaN	NaN	NaN
5139.410	NaN	NaN	NaN	NaN
5143.410	NaN	NaN	NaN	NaN
5147.451	NaN	NaN	NaN	NaN
5151.452	NaN	NaN	NaN	NaN
5155.471	NaN	NaN	NaN	NaN
5287.225	NaN	NaN	NaN	NaN
5355.776	2.48388	4.01181	2.31810	-0.70404
5359.579	2.43692	4.88916	4.25830	-0.28260
5363.577	2.28579	4.49715	3.46617	-0.16926
5367.576	2.10862	4.33703	2.87324	0.01799
5371.584	1.79663	4.57994	2.36309	0.20754
5375.566	2.09115	4.42149	2.53152	0.59302
5379.575	1.91722	4.37850	4.37470	0.32375
5383.575	1.97475	4.34687	4.06705	0.43128
5387.482	3.10836	4.18340	3.83403	0.82968
5391.578	2.46905	3.80814	3.26191	1.64004
5395.576	2.24718	3.45980	2.67459	1.70542
5399.576	2.03779	3.99273	4.38699	0.92413
5403.479	2.62623	4.30067	4.26911	1.75718
5407.574	2.46724	4.46545	2.51373	5.01794
5411.577	2.37989	4.72308	3.17129	4.85524
5415.576	3.20800	5.00399	3.17552	1.79441
5419.487	3.93319	5.42055	-0.18298	1.86687
5423.579	4.56281	5.53022	-1.34286	2.78497
5427.541	5.76635	5.77242	-1.40770	0.82945
5431.581	4.37786	5.77054	-0.55148	0.56299
5435.482	4.47104	5.92623	2.62722	0.99096
5439.577	5.96073	5.95686	3.09975	1.61097
5443.584	6.31858	6.10301	2.11926	2.17797
5447.579	7.11159	6.95871	-1.18805	1.07074
5451.477	7.33103	6.87342	2.33385	1.84405
5455.581	7.10919	6.63860	5.92528	1.50945
5459.581	6.96592	7.13815	3.88011	2.00829
5463.579	10.73492	6.30196	1.14967	0.71234
5467.480	7.28385	7.11932	3.78899	3.21128
5471.578	NaN	NaN	NaN	NaN
5475.578	NaN	NaN	NaN	NaN
5479.580	NaN	NaN	NaN	NaN
5483.575	NaN	NaN	NaN	NaN
5487.587	NaN	NaN	NaN	NaN
5491.579	NaN	NaN	NaN	NaN
5495.578	NaN	NaN	NaN	NaN
5499.578	NaN	NaN	NaN	NaN
5503.535	NaN	NaN	NaN	NaN
5507.577	NaN	NaN	NaN	NaN
5511.576	NaN	NaN	NaN	NaN
5515.578	NaN	NaN	NaN	NaN
5519.537	NaN	NaN	NaN	NaN
5523.577	NaN	NaN	NaN	NaN
5527.453	NaN	NaN	NaN	NaN
5531.454	NaN	NaN	NaN	NaN
5535.453	NaN	NaN	NaN	NaN
5539.453	NaN	NaN	NaN	NaN
5543.454	NaN	NaN	NaN	NaN
5547.437	NaN	NaN	NaN	NaN
5551.412	NaN	NaN	NaN	NaN
5555.452	NaN	NaN	NaN	NaN
5559.453	NaN	NaN	NaN	NaN
5563.456	NaN	NaN	NaN	NaN
5567.479	NaN	NaN	NaN	NaN
5571.456	NaN	NaN	NaN	NaN
5575.458	NaN	NaN	NaN	NaN
5579.460	NaN	NaN	-4.94802	2.60250
5583.456	NaN	NaN	-2.07608	3.61842
5587.587	-21.25595	3.39387	1.83325	-12.56492
5591.455	-20.00032	-12.07693	-2.40711	4.33597
5595.457	1.92565	10.10194	-0.07651	5.92489
5599.458	-7.17294	9.37842	-3.43499	2.06490
5603.481	4.76828	9.76335	1.69272	4.44097
5607.457	3.52821	11.22364	0.65101	4.40873
5611.456	4.05352	10.46825	0.28612	4.34917
5615.456	4.77387	7.37459	-3.60568	4.31498
5619.449	6.97176	7.08793	0.92882	4.55235
5623.457	7.16713	7.12903	0.99281	4.65846
5627.458	7.10196	7.14732	-4.01221	4.32673
5631.435	7.30000	7.05627	-0.59220	4.31786
5635.420	8.48017	6.29259	-4.05078	4.32682
5639.457	5.83854	6.81511	-1.54217	2.78222
5643.456	-1.21487	6.35012	-2.05162	3.65268
5647.454	-1.04334	6.96966	0.73610	3.98433
5651.457	1.15600	6.81077	0.38623	3.59776
5655.459	0.45142	6.94339	0.10955	3.40263
5659.455	1.57059	2.96209	-1.54621	4.42398
5663.455	-0.05254	3.50049	0.58622	3.43272
5667.451	-0.47252	3.94365	1.48694	3.38023
5671.446	0.96787	4.70961	-0.27332	3.32440
5675.445	-0.35057	5.74854	0.69082	3.47063
5679.455	0.19633	5.82139	0.79749	2.89427
5683.456	1.81929	5.64351	1.02938	1.26655
5687.456	0.98918	5.89990	0.05986	2.73223
5691.458	0.55855	5.95375	1.02789	1.35408
5695.458	1.17986	4.65462	0.86017	0.74167
5699.460	1.32265	4.36729	0.47996	0.12983
5703.458	-0.09341	4.02261	0.63044	1.54738
5707.462	0.94852	3.79230	0.60119	0.01578
5711.458	0.01360	4.19043	0.67764	0.52523
5715.451	-0.09046	5.56157	0.49371	1.06996
5719.458	0.12491	5.59578	0.83769	1.14733
5723.457	0.73712	3.97353	0.15290	1.82750
5727.459	-0.35787	4.07988	0.91713	2.07850
5731.462	0.11811	4.17139	0.51183	2.19637
5735.459	0.80856	4.32268	0.60372	2.78349
5739.458	-0.06455	5.16293	0.36782	3.65774
5743.458	-0.31213	5.40083	0.36504	2.37975
5747.461	-0.27987	4.05182	0.59459	2.69715
5751.461	-0.17482	3.83038	0.11282	-1.23039
5755.460	-0.36243	4.13992	0.00419	-0.53566
5759.457	-0.24482	4.70204	0.99963	0.47605
5763.452	-0.08577	4.83430	0.99412	0.70344
5767.463	-0.31580	5.03804	0.27503	0.64316
5771.456	0.52374	4.64694	0.51753	0.34715
5775.460	-0.39708	3.91520	0.61114	0.65570
5779.458	0.12342	4.46640	0.71077	1.18065
5783.461	-0.50274	4.30651	0.66149	0.80359
5787.455	-0.25718	4.59325	0.29317	1.72632
5791.458	-0.42740	4.70326	0.02363	2.10576
5795.450	-0.38030	4.34105	0.91780	2.58674
5799.461	-0.27242	3.86444	1.21645	2.97713
5803.458	0.19137	3.46509	0.51418	3.65851
5807.462	-0.56945	4.21210	0.30652	0.96397
5811.454	-0.27376	4.39537	0.58870	0.90071
5815.416	0.23257	4.25317	1.10837	0.76377
5819.457	-0.02827	4.50301	0.99127	0.68992
5823.457	2.00844	3.55270	-0.15427	0.89680
5827.451	-0.37653	3.54222	0.14769	2.49806
5831.461	0.07378	4.00264	0.22651	2.92910
5835.418	0.45889	3.70880	1.08577	3.18110
5839.437	-0.33427	4.48745	0.91279	3.84015
5843.470	-0.23217	5.28862	0.00109	0.28422
5847.465	-0.41859	3.45895	0.80883	0.21313
5851.462	0.17196	3.34448	1.19167	0.29859
5855.458	-0.00573	3.97964	0.81975	0.14061
5859.462	-0.26706	3.82182	0.19196	0.79276
5863.457	0.67350	3.48143	0.22050	0.74476
5867.458	0.18817	3.75363	0.75087	0.11872
5871.459	-0.28930	4.16848	0.68360	0.25178
5875.463	-0.10955	4.23528	0.34578	0.13465
5879.418	0.46200	3.89073	0.14491	0.44785
5883.458	-0.14714	3.72877	-0.12985	1.86650
5887.461	-0.26361	3.31833	0.71610	3.41976
5891.454	0.18298	3.27033	0.47845	2.30319
5895.464	0.23917	3.17423	0.50652	0.83571
5899.458	0.29947	4.38563	1.50549	0.44474
5903.420	0.19482	4.27097	-0.18606	2.39306
5907.453	0.48592	4.05027	1.00037	3.40849
5911.460	0.06289	3.05729	0.57377	1.47353
5915.458	-0.27386	3.48837	0.40321	0.02212
5919.461	-0.09647	3.49402	0.40298	3.68465
5923.461	-0.33652	3.90550	0.76020	3.00955
5927.461	-0.18003	4.35148	0.45902	1.68965
5931.459	0.29749	3.82572	0.63945	0.77969
5935.463	0.25686	3.36328	0.55811	0.40328
5939.455	1.73866	3.94909	0.23470	3.37446
5943.461	-0.29141	3.72396	0.88262	2.57105
5947.462	-0.32682	3.81084	0.54431	2.50785
5951.462	0.78699	3.60597	0.56992	1.87138
5955.464	0.21234	3.28437	0.66156	1.40211
5959.463	0.27498	3.48136	0.08093	1.70477
5963.438	1.30494	3.51018	1.09698	1.45223
5967.460	0.23691	3.51539	1.88896	2.12898
5971.486	1.48744	3.51446	0.71623	4.73893
5975.460	2.04458	4.44327	0.27699	4.08127
5979.459	1.89796	5.17132	5.78327	3.25509
5983.460	1.84267	6.10161	2.07606	3.88485
5987.454	2.34235	6.39539	4.31793	4.93142
5991.462	2.10682	4.38061	5.39394	2.58563
5995.463	2.19110	4.02727	7.65556	3.03162
5999.462	2.46900	4.72947	3.91842	1.73353
6003.424	2.09747	5.30163	4.55939	0.95600
6007.458	2.49924	6.33743	6.13537	3.00254
6011.463	2.23900	5.69027	8.72600	1.68429
6015.463	2.18716	6.14999	10.51940	2.42716
6019.464	-2.97715	5.09123	7.79252	2.44131
6023.459	2.93569	6.40251	8.79880	6.33387
6027.461	7.97639	9.92739	-2.71359	3.46667
6031.460	2.50266	6.79036	-1.61022	1.48129
6035.462	-2.21125	4.46337	-0.20874	5.92053
6039.422	NaN	NaN	-1.61324	5.60488
6043.464	NaN	NaN	NaN	NaN
6047.434	NaN	NaN	NaN	NaN
6051.466	NaN	NaN	NaN	NaN
6055.468	NaN	NaN	NaN	NaN
6059.461	NaN	NaN	NaN	NaN
6063.471	NaN	NaN	NaN	NaN
6067.462	NaN	NaN	NaN	NaN
6071.420	NaN	NaN	NaN	NaN
6075.437	NaN	NaN	NaN	NaN
6079.460	NaN	NaN	NaN	NaN
6083.462	NaN	NaN	NaN	NaN
6087.460	NaN	NaN	NaN	NaN
6091.436	NaN	NaN	NaN	NaN
6095.465	NaN	NaN	NaN	NaN
6099.459	NaN	NaN	NaN	NaN
6103.461	NaN	NaN	NaN	NaN
6107.420	NaN	NaN	NaN	NaN
6111.464	NaN	NaN	NaN	NaN
6115.463	NaN	NaN	NaN	NaN
6119.462	NaN	NaN	NaN	NaN
6123.463	NaN	NaN	NaN	NaN
6127.421	NaN	NaN	NaN	NaN
6131.470	NaN	NaN	NaN	NaN
6135.464	NaN	NaN	NaN	NaN
6139.433	NaN	NaN	NaN	NaN
6143.422	NaN	NaN	NaN	NaN
6147.465	NaN	NaN	NaN	NaN
6151.490	NaN	NaN	NaN	NaN
6155.447	NaN	NaN	NaN	NaN
6159.463	NaN	NaN	NaN	NaN
6163.463	NaN	NaN	NaN	NaN
6167.468	NaN	NaN	-6.12430	-9.48618
6171.464	NaN	NaN	0.33508	0.36952
6175.424	NaN	NaN	-1.79024	2.56219
6179.465	NaN	NaN	1.78870	3.99209
6183.465	NaN	NaN	0.91373	3.02599
6187.464	NaN	NaN	-1.46573	-0.05736
6191.464	NaN	NaN	0.52972	0.08667
6195.469	1.42876	13.41905	0.86024	0.11742
6199.466	NaN	NaN	0.79737	-2.09551
6203.466	7.78859	6.41041	0.92520	0.53797
6207.469	8.20544	6.98163	1.01015	2.01705
6211.463	10.64357	12.84510	1.12769	-0.06268
6215.369	8.44273	4.42957	0.55927	2.01010
6219.464	3.16646	4.72128	1.23022	3.00216
6223.463	6.09351	7.00389	1.44210	1.71746
6227.466	-4.04488	3.11914	0.71652	0.58627
6231.347	-3.88396	-0.28654	-0.00154	5.32414
6235.466	1.05146	2.94452	1.10413	3.27246
6239.463	-0.22693	4.15648	0.14546	1.39262
6243.424	0.21400	3.22269	0.23043	-0.00395
6247.461	0.27525	2.16552	1.03662	2.05488
6251.464	-0.27418	3.59120	0.59769	3.69518
6255.438	0.40184	3.61714	1.16255	2.97877
6259.463	0.51183	4.33203	2.28628	2.47184
6263.367	1.05024	3.91486	1.71238	2.43393
6267.440	-0.81238	4.05839	2.22426	2.92984
6271.466	-0.78116	3.21954	1.58289	2.84052
6275.463	-0.61684	2.97017	1.32252	2.02273
6279.368	0.23753	3.04537	2.22183	0.18312
6283.468	0.39596	4.61488	0.66536	0.65033
6287.468	-1.26217	2.99786	1.06823	2.41850
6291.468	-0.24644	3.10741	1.08783	-0.48081
6295.371	0.33337	4.68445	1.16687	0.60595
6299.456	-0.10349	2.60545	0.99826	3.79806
6303.469	-0.13610	3.16860	0.86605	-0.34004
6307.467	-0.72982	3.77537	1.07793	2.81451
6311.475	0.23870	2.82358	1.02804	-1.13428
6315.469	0.16615	4.24436	0.53386	2.03621
6319.466	0.31124	2.33186	0.69995	2.39991
6323.465	0.75474	3.01791	0.80493	-0.13435
6327.365	0.26565	3.81074	1.02498	1.74079
6331.465	0.32816	3.91347	0.84510	2.36302
6335.467	0.41450	1.98100	0.81064	-0.32969
6339.434	0.40139	3.15558	0.73690	-0.44272
6343.349	0.80821	2.98340	0.67126	-0.29521
6347.466	0.49458	3.76732	0.77568	-0.07668
6351.469	0.44482	3.53004	0.93204	-0.03565
6355.467	0.45405	3.50847	1.09041	-0.23421
6359.367	0.52168	2.86709	0.91560	-0.14368
6363.467	0.24837	3.20965	1.01045	-0.24863
6367.466	0.48503	2.25615	0.82947	-0.21119
6371.466	0.20544	3.36862	0.71868	1.35365
6375.368	-0.13873	5.09140	1.04550	1.74631
6379.428	-0.28763	5.40353	1.20112	1.18373
6383.470	-0.03452	4.26657	0.81880	1.00626
6387.436	-0.03775	3.69112	0.98402	0.66568
6391.367	-0.17819	3.70954	0.90932	1.33111
6395.469	0.44311	3.20649	0.68191	0.12503
6399.468	0.13985	3.81233	0.62600	0.86068
6403.467	-0.30580	3.89965	0.53019	0.14727
6407.368	0.41050	4.13520	0.47698	0.96951
6411.472	0.19921	4.44734	0.85818	1.35489
6415.486	0.09823	3.51925	0.67918	1.70651
6419.472	0.31526	3.14141	0.66918	-1.28959
6423.373	-0.27252	3.91067	0.82865	0.74453
6427.469	-0.13856	4.00775	1.17900	1.48409
6431.426	0.53307	3.11380	0.98737	0.34664
6435.467	0.54692	4.14978	0.50118	0.78501
6439.369	-0.27356	5.23925	1.03215	1.20871
6443.467	0.21013	2.81764	1.51896	0.98232
6447.471	0.50661	4.37969	2.57360	2.16138
6451.468	0.66427	3.66212	1.44458	4.76908
6455.368	2.20322	3.45125	2.35172	0.40015
6459.469	0.82669	5.18275	3.17633	3.00404
6463.445	0.84555	4.46017	1.59854	4.42014
6467.469	1.50614	3.05512	2.50157	1.48197
6471.369	1.32741	4.55640	3.38315	2.27068
6475.468	0.95770	4.60946	4.79393	2.90121
6479.467	2.81214	5.49404	7.72013	2.82667
6483.470	2.37181	4.78460	4.67199	2.39057
6487.472	2.92708	3.27027	4.43863	2.05724
6491.468	2.80055	3.39638	4.41973	2.39709
6495.468	1.30881	4.48222	6.59709	1.52813
6499.426	2.41514	3.51604	4.62135	1.68315
6503.371	3.04969	4.16322	6.79768	1.76774
6507.473	2.82167	4.12389	7.10484	1.47099
6511.470	2.73893	3.99205	7.09199	2.11501
6515.429	0.35571	3.78505	3.66511	0.32637
6519.372	2.27788	4.01616	4.85886	-1.04435
6523.468	-0.08038	3.88561	7.09135	0.81875
6527.470	-7.27343	0.51755	4.67621	0.05543
6531.426	6.18009	7.15706	12.70962	2.87783
6535.370	7.35053	7.16401	-4.42096	0.70435
6539.467	8.10562	6.77476	-4.94228	0.86169
6543.467	8.12262	6.42205	1.44393	1.34369
6547.437	-5.38845	0.01071	3.78328	0.45327
6551.474	-5.68462	0.62394	5.01066	0.24232
6555.468	-6.22880	0.75351	4.16295	1.37188
6559.469	-5.25512	0.80195	5.84802	0.27466
6563.344	-5.55988	2.73089	5.50958	0.22815
6567.341	-2.15259	5.88539	2.00544	0.85025
6571.346	-5.58970	2.67644	1.82953	1.26596
6575.344	-2.74415	1.38519	4.06890	-0.93923
6579.343	-5.39401	0.91104	3.70386	-0.43156
6583.347	-6.40547	1.07994	6.32252	0.16434
6587.348	-3.41439	2.10574	4.38808	0.02968
6591.342	-4.53480	1.13277	3.40999	-0.04105
6595.336	-2.77998	1.47435	1.89684	-0.07669
6599.349	-3.27702	1.06287	2.00056	-0.24983
6603.346	-8.55726	1.98469	-1.11271	1.66910
6607.346	5.40848	8.28973	-1.19646	1.90556
6611.344	-0.07356	5.52716	-0.44763	0.42843
6615.346	-2.71201	3.91470	-0.56669	1.72214
6619.345	NaN	NaN	-0.37335	0.77143
6623.345	NaN	NaN	NaN	NaN
6627.305	NaN	NaN	NaN	NaN
6631.345	NaN	NaN	NaN	NaN
6635.350	NaN	NaN	NaN	NaN
6639.343	NaN	NaN	NaN	NaN
6643.346	NaN	NaN	NaN	NaN
6647.344	NaN	NaN	NaN	NaN
6651.307	NaN	NaN	NaN	NaN
6655.305	NaN	NaN	NaN	NaN
6659.342	NaN	NaN	NaN	NaN
6663.344	NaN	NaN	NaN	NaN
6667.345	NaN	NaN	NaN	NaN
6671.346	NaN	NaN	NaN	NaN
6675.345	NaN	NaN	NaN	NaN
6679.343	NaN	NaN	NaN	NaN
6683.343	NaN	NaN	NaN	NaN
6687.302	NaN	NaN	NaN	NaN
6691.344	NaN	NaN	NaN	NaN
6695.349	NaN	NaN	NaN	NaN
6699.347	NaN	NaN	NaN	NaN
6703.304	NaN	NaN	NaN	NaN
6707.347	NaN	NaN	NaN	NaN
6711.345	NaN	NaN	NaN	NaN
6715.346	NaN	NaN	NaN	NaN
6719.307	NaN	NaN	NaN	NaN
6723.346	NaN	NaN	NaN	NaN
6727.348	NaN	NaN	NaN	NaN
6731.306	NaN	NaN	NaN	NaN
6735.348	NaN	NaN	NaN	NaN
6739.348	NaN	NaN	NaN	NaN
6743.348	NaN	NaN	NaN	NaN
6747.377	NaN	NaN	NaN	NaN
6751.351	NaN	NaN	NaN	NaN
6755.348	NaN	NaN	NaN	NaN
6759.327	NaN	NaN	-4.09150	3.65217
6763.385	NaN	NaN	-0.85687	-1.28827
6767.351	NaN	NaN	-1.41581	1.52941
6771.351	NaN	NaN	-1.98450	-1.64906
6775.350	NaN	NaN	-0.90001	0.34650
6779.350	NaN	NaN	1.86684	0.38632
6783.349	NaN	NaN	0.37836	5.63340
6787.349	NaN	NaN	2.21179	6.34476
6791.348	NaN	NaN	0.06584	3.94039
6795.354	-4.84538	13.17188	-1.46082	1.70819
6799.346	-4.20299	14.87217	-1.18416	0.68337
6803.340	NaN	NaN	2.82083	5.13999
6807.346	NaN	NaN	-0.14905	4.72899
6811.374	NaN	NaN	-1.70936	4.24334
6815.349	NaN	NaN	-0.19822	3.33935
6819.347	-7.31347	14.89514	-3.90990	-0.05690
6823.351	NaN	NaN	-3.00913	0.32477
6827.349	NaN	NaN	-1.09132	-0.75956
6831.350	NaN	NaN	-2.43345	0.44208
6835.349	-7.39100	14.83416	-0.87684	2.68959
6839.351	-4.19627	2.43166	0.89907	3.20174
6843.311	-3.94298	2.32134	1.34316	3.59273
6847.349	-0.73258	2.31682	-1.45832	2.90290
6851.350	-0.55831	2.11529	-0.29404	1.94998
6855.308	1.59866	2.08024	2.16181	1.49442
6859.342	-0.61312	2.12626	2.06042	1.58099
6863.350	0.49910	2.46057	2.54712	2.28387
6867.349	-0.23192	3.33989	2.95750	3.57925
6871.351	0.61774	4.01200	1.62547	3.40635
6875.310	1.14084	3.71585	0.93247	2.66107
6879.351	0.18956	4.37909	2.34193	2.39056
6883.349	1.28055	3.39602	0.92760	1.45141
6887.347	1.02610	3.31093	1.85363	1.18660
6891.312	1.51811	3.48441	1.78850	0.17825
6895.360	0.90078	3.63522	2.09259	0.33804
6899.355	0.88101	3.54606	1.86491	-0.15383
6903.350	1.01992	3.63145	1.71719	-0.09734
6907.342	1.26865	3.75585	1.40814	-0.40086
6911.350	0.77709	3.85725	1.86833	-0.34472
6915.349	0.78069	3.92450	1.60092	-0.64672
6919.351	0.64149	3.94606	1.89025	-0.35326
6923.344	0.43452	3.96630	1.81215	-0.04831
6927.318	0.62119	4.28575	1.08860	0.26097
6931.350	0.41147	3.96586	1.81818	3.09276
6935.349	0.73841	3.87826	1.67206	2.66787
6939.345	0.39132	4.03575	1.60712	2.02677
6943.308	0.52543	4.07247	1.42347	1.25238
6947.351	0.23321	4.01250	1.14960	1.13756
6951.350	0.46758	3.88437	1.15196	0.56618
6955.346	0.88840	3.61068	1.75533	-0.55537
6959.352	0.55888	3.01901	0.29394	1.82307
6963.350	0.48969	2.21697	1.57272	2.59237
6967.329	0.33992	2.42944	0.98822	2.24369
6971.312	0.41991	3.79596	1.42136	1.39011
6975.354	0.19971	4.05444	0.62198	1.08462
6979.351	0.41018	4.47852	0.64186	0.02691
6983.352	0.33163	4.81700	0.97430	-0.61567
6987.347	0.27664	4.02947	1.53493	-0.69649
6991.312	0.32002	2.24421	1.48478	-1.17935
6995.354	0.77699	1.95583	1.52642	-0.84131
6999.352	0.33198	2.31799	1.04751	-0.72057
7003.360	0.62330	3.62493	1.18373	-0.43441
7007.308	0.54143	3.94111	1.04580	-0.41816
7011.310	0.41390	4.55404	1.04582	0.93039
7015.351	0.91907	1.97579	1.18758	1.95085
7019.354	0.48202	3.35773	1.35385	2.26473
7023.351	0.57359	4.25482	2.02230	0.93498
7027.350	0.40435	4.10705	1.14228	-0.34424
7031.351	0.67357	2.81922	0.88518	-0.37945
7035.355	0.63752	2.99902	1.01662	1.30450
7039.350	0.34866	4.23481	1.20795	1.84008
7043.352	0.12967	4.33387	1.26733	1.81882
7047.353	0.39698	4.37961	1.24664	2.89275
7051.348	0.47852	3.60710	1.44612	3.31145
7055.356	0.35658	2.71455	1.06875	2.10294
7059.313	0.33970	2.89700	1.49664	1.97827
7063.352	0.55141	2.71638	1.24726	2.22831
7067.314	0.75675	2.76243	1.72785	2.35440
7071.351	0.53384	4.75403	1.56647	2.22540
7075.351	0.19690	4.99224	2.28636	2.15943
7079.353	0.92244	4.39199	2.24559	1.65325
7083.354	0.66908	3.53392	2.30759	1.41199
7087.353	0.76551	3.04458	2.35315	2.94587
7091.336	0.59297	5.67502	1.40504	1.29560
7095.350	0.67037	4.57698	1.62765	-0.34126
7099.354	1.04322	4.07300	2.48190	3.70389
7103.354	0.96214	3.85209	1.80129	3.03882
7107.352	0.72690	5.36819	1.68714	0.54375
7111.311	1.01930	5.11682	2.90143	1.98717
7115.354	1.78994	4.16030	1.99875	3.76925
7119.352	1.29908	3.94801	1.88318	3.41001
7123.351	1.19070	6.22252	2.19100	0.96953
7127.362	4.95324	7.48786	4.50084	0.78160
7131.348	6.74379	8.88014	-3.97123	3.40706
7135.311	2.48505	5.71929	0.79007	3.08480
7139.354	NaN	NaN	-1.50938	3.48831
7143.355	NaN	NaN	NaN	NaN
7147.359	NaN	NaN	NaN	NaN
7151.354	NaN	NaN	NaN	NaN
7155.354	NaN	NaN	NaN	NaN
7159.350	NaN	NaN	NaN	NaN
7163.351	NaN	NaN	NaN	NaN
7167.351	NaN	NaN	NaN	NaN
7171.350	NaN	NaN	NaN	NaN
7175.332	NaN	NaN	NaN	NaN
7179.353	NaN	NaN	NaN	NaN
7183.351	NaN	NaN	NaN	NaN
7187.351	NaN	NaN	NaN	NaN
7191.313	NaN	NaN	NaN	NaN
7195.314	NaN	NaN	NaN	NaN
7199.355	NaN	NaN	NaN	NaN
7203.319	NaN	NaN	NaN	NaN
7207.364	NaN	NaN	NaN	NaN
7211.357	NaN	NaN	NaN	NaN
7215.314	NaN	NaN	NaN	NaN
7219.350	NaN	NaN	NaN	NaN
7223.355	NaN	NaN	NaN	NaN
7227.355	NaN	NaN	NaN	NaN
7231.318	NaN	NaN	NaN	NaN
7235.355	NaN	NaN	0.51781	1.38901
7239.355	NaN	NaN	-2.01097	1.74419
7243.356	NaN	NaN	1.08066	1.61185
7247.258	5.20113	11.42269	1.21695	5.22000
7251.314	5.21872	10.97571	0.31593	-1.04455
7255.355	9.61522	9.01794	0.98913	3.52472
7259.327	11.72803	11.26388	0.29577	-0.62366
7263.247	7.37218	6.55760	0.88113	-0.51115
7267.356	1.46278	2.97946	0.62622	0.69053
7271.354	9.08200	10.11554	0.36727	-0.21511
7275.357	12.56822	8.84298	0.24870	-0.97008
7279.357	12.38768	7.66683	1.91868	-1.49722
7283.355	12.53448	7.09824	3.04719	0.31742
7287.355	-0.76474	4.83871	1.12390	0.66841
7291.356	3.21189	6.65669	1.55147	0.47394
7295.364	-1.42880	3.99739	1.24233	0.96547
7299.357	1.60737	3.92839	1.05245	2.07127
7303.359	0.35099	3.80742	0.02871	3.40682
7307.355	1.25840	3.93920	0.28964	3.01637
7311.256	1.73170	4.19477	4.47072	1.22618
7315.314	1.49279	6.56926	1.58609	0.87997
7319.356	-1.45021	3.43336	1.67893	1.09087
7323.354	0.23137	3.77586	2.01526	0.93195
7327.258	-0.90967	6.56682	1.57600	1.93746
7331.318	0.58560	2.98711	1.83077	1.08845
7335.356	0.39254	3.90058	1.88566	0.79765
7339.355	0.72074	5.77149	1.99984	2.65509
7343.261	0.05390	3.93295	2.14079	1.04568
7347.357	-0.56846	5.66986	1.51938	0.74639
7351.366	0.27528	3.26917	2.20238	0.62472
7355.357	-0.81126	4.73224	1.47685	0.63610
7359.259	0.28322	3.33284	2.22778	2.50230
7363.357	0.22130	11.43768	1.80987	-1.92341
7367.355	0.26217	4.38295	1.16687	0.37993
7371.355	0.36926	2.87798	2.39433	1.42813
7375.360	1.10321	11.38578	1.35415	1.12613
7379.356	0.00201	4.24369	1.18416	0.37834
7383.315	0.21770	1.56492	0.96723	0.53566
7387.356	0.27815	3.03107	1.52280	1.05061
7391.233	0.45006	3.32188	2.55277	1.28825
7395.360	-0.26207	4.32924	2.23828	1.65579
7399.318	-0.13962	4.52552	1.93941	1.03384
7403.361	0.20482	3.29663	0.80764	1.52525
7407.363	0.40971	3.18079	0.75119	0.47159
7411.358	0.67010	2.46010	1.18262	0.04815
7415.357	0.41251	3.12064	1.24186	0.18386
7419.359	0.18869	4.96085	0.96033	1.58383
7423.359	0.28083	4.09375	0.80191	0.68432
7427.358	0.13645	3.08092	0.86781	-0.98096
7431.359	-0.12707	2.99948	0.24947	0.41410
7435.358	-0.08850	4.68719	0.69298	1.13883
7439.364	0.38941	3.27706	1.64660	0.23726
7443.357	0.63111	2.92885	1.06448	-1.03627
7447.358	-0.07113	2.66412	1.15042	0.77924
7451.358	-0.01802	4.74253	1.08167	0.46076
7455.373	0.58074	3.81318	1.36300	-1.27792
7459.359	-0.16519	3.58493	0.49369	0.42159
7463.359	-0.04748	3.26537	0.52031	0.21526
7467.317	0.85046	2.83076	0.84133	1.33704
7471.253	0.05237	2.83610	1.19018	0.83613
7475.358	-0.00437	2.90330	0.88381	0.72050
7479.357	-0.01161	2.62866	0.78759	0.92047
7483.357	-0.04735	2.61026	0.75819	0.50980
7487.262	0.49230	2.65710	0.64250	1.03996
7491.359	-0.18747	2.93763	0.83042	1.28515
7495.358	0.26758	3.59521	1.13392	1.41800
7499.359	-0.16484	4.63312	0.49855	0.60538
7503.264	-0.15394	4.76167	0.75489	-0.06984
7507.346	-0.22656	2.58537	0.83942	0.05690
7511.358	-0.22822	3.83910	1.10375	0.89910
7515.358	-0.21619	5.05950	1.19135	0.94837
7519.363	-0.31394	2.82148	0.86781	0.53768
7523.362	-0.01030	3.19366	1.07282	0.10067
7527.358	0.36308	4.46595	1.15302	0.37936
7531.361	-0.37219	5.06505	1.20537	1.33240
7535.239	0.04197	3.11572	0.96393	0.85522
7539.364	-0.35395	3.33183	0.63734	-1.98423
7543.360	-0.54701	4.36785	0.42363	-0.35133
7547.361	-2.16895	4.92419	-0.25532	1.42690
7551.261	-2.20634	5.29946	0.77709	1.29132
7555.360	-0.74761	5.31083	-0.09925	1.34561
7559.362	-2.43756	5.42895	-1.14895	0.92010
7563.360	-1.28899	4.73653	-0.53796	0.99020
7567.260	-1.41229	4.92577	-0.23440	1.10172
7571.359	-2.13983	4.79756	-0.22095	0.19742
7575.359	-1.58688	4.21077	0.04353	0.74220
7579.359	-1.31198	3.59596	-0.41209	1.97219
7583.232	-2.45356	3.37548	-0.74397	1.69350
7587.361	-2.18458	4.29094	-0.83833	0.59475
7591.235	-1.75247	4.88243	-0.08304	-1.24286
7595.225	-1.68039	4.38803	-0.55970	2.24049
7599.204	-2.79652	3.96538	-0.73074	0.90083
7603.199	-2.04508	4.63287	-0.37353	0.68542
7607.237	-0.25426	4.53784	-1.15111	1.06981
7611.238	-1.83303	4.59416	-0.46314	1.71820
7615.228	-1.91330	4.51456	-0.44167	1.10435
7619.238	-1.68007	4.96413	-0.39914	-1.13429
7623.235	-3.55671	4.78588	-0.16536	0.15819
7627.236	-2.35727	5.21175	-0.42455	1.17738
7631.236	-1.80670	4.85349	-0.24043	2.46012
7635.195	-1.53242	4.25769	-0.24371	2.24246
7639.195	-1.98051	4.52951	-0.28828	2.18117
7643.234	-1.54128	4.93370	-0.28927	1.27963
7647.240	-3.79635	4.92881	0.29151	1.67592
7651.236	-2.75220	4.55768	-0.23371	-1.07986
7655.238	-1.78495	4.37577	-0.28267	-0.30320
7659.239	-1.67933	4.38485	-0.25788	-0.59118
7663.264	-1.44522	4.08294	-0.02062	0.56055
7667.237	-0.25041	4.43631	-0.33196	1.53258
7671.206	-2.09747	3.86272	-0.39323	0.88238
7675.238	-1.92280	5.47104	-0.28307	1.82232
7679.251	-2.31666	5.83965	-0.26143	1.11240
7683.237	-1.91516	4.36295	-0.46420	0.93233
7687.237	-1.85142	4.57968	-0.17898	1.29898
7691.194	-3.44691	4.75966	-0.34757	1.33374
7695.260	-1.90376	5.48198	-0.20631	0.77114
7699.236	-0.61014	4.68659	-0.20713	1.20460
7703.236	-1.88588	5.23998	-1.20703	0.17917
7707.238	-1.86449	5.22874	-0.51595	-1.01251
7711.240	-1.50113	4.99818	-0.33218	1.22347
7715.237	-1.31473	4.32571	-0.95936	2.27928
7719.231	-1.34180	5.10287	-0.63655	1.63796
7723.229	-1.56060	4.84917	-0.37521	1.63398
7727.232	-2.96064	4.65918	-0.25768	1.44679
7731.239	-2.27310	4.51281	-0.17819	0.63030
7735.238	-1.61022	4.34383	-0.83779	1.28989
7739.197	-1.30657	4.53039	-0.38291	0.62134
7743.238	-1.24652	4.49872	-0.41755	1.45193
7747.237	-2.93438	4.61824	-0.34002	1.14540
7751.238	-1.22553	4.12023	-0.60818	1.17546
7755.195	-1.09517	4.28322	-0.75662	1.48539
7759.200	-2.26187	4.78990	-0.27940	1.72891
7763.237	-2.21048	5.93162	-0.53123	2.19091
7767.244	-3.09928	4.64079	-0.35447	0.13222
7771.240	-2.67068	4.25364	-0.12640	0.38677
7775.234	-0.93028	4.45012	-0.92875	1.42005
7779.238	-1.96657	4.93988	-0.54575	1.36603
7783.237	-2.52156	5.45434	-0.51096	2.37326
7787.239	-1.55554	5.05561	-1.23295	2.64283
7791.270	-3.12264	4.80124	-0.34764	1.10506
7795.237	-2.40959	4.20785	-0.50324	0.97289
7799.240	-2.40332	4.88201	-0.35506	0.53950
7803.229	-2.11889	4.74219	-0.24942	0.68664
7807.240	-1.84443	4.71513	1.60871	0.64714
7811.237	-1.79753	4.65757	-0.91254	2.11339
7815.237	-3.77189	4.72327	-0.91140	2.93832
7819.239	-3.26562	4.91390	-0.55401	2.06559
7823.217	-2.00532	4.99941	-0.50269	1.53379
7827.242	-1.21648	4.80638	-0.92669	0.74263
7831.241	-1.26912	4.89952	1.13275	0.80580
7835.238	-1.70333	4.56156	-0.27880	2.98770
7839.232	-1.74283	4.96148	-0.38080	2.40517
7843.239	-1.84820	5.18105	-0.30503	1.75800
7847.207	-2.39933	5.12254	-0.15317	0.52674
7851.238	-1.91100	4.97521	-0.24783	0.94147
7855.265	-1.31461	4.89295	-0.46224	2.07939
7859.242	-1.44034	4.68728	-0.02410	1.74658
7863.241	-1.59110	4.92446	0.07686	2.01776
7867.239	-1.40834	4.87443	-0.14387	1.85141
7871.234	-1.74992	5.18837	0.12498	-0.36689
7875.242	-1.73346	4.90142	0.24085	0.00184
7879.215	-1.99206	5.16882	0.09922	1.99480
7883.240	-2.07036	5.11846	0.16653	3.35199
7887.252	-1.85946	4.99212	-0.05562	0.60073
7891.241	-2.68108	4.81928	-0.18946	0.96604
7895.240	-1.79572	4.69966	0.36740	2.03581
7899.241	-2.00314	5.78872	0.07448	1.51587
7903.240	-1.79745	4.60385	0.06758	1.91674
7907.243	-1.73576	5.40776	0.60808	3.74270
7911.242	-2.32915	5.06854	0.44192	1.33933
7915.239	-1.87307	4.79390	0.83506	2.55781
7919.234	-1.55241	4.67451	0.72759	3.04218
7923.241	-0.24897	5.13387	0.45994	2.56418
7927.242	-2.23779	5.63070	-0.02812	0.90438
7931.236	-2.81788	5.86120	0.88964	0.63753
7935.237	-3.55951	6.03557	-1.79301	0.95328
7939.240	3.68441	6.13214	-3.32911	0.57481
7943.243	6.02617	8.84164	-5.27813	1.86179
7947.240	6.83758	9.57683	-6.87049	1.36583
7951.234	10.31525	7.17395	-3.33030	1.55508
7955.241	-5.71809	6.76752	-0.22616	0.67621
7959.241	-5.14995	4.94124	-2.67707	2.40783
7963.240	-1.14278	5.26549	0.28396	0.81330
7967.248	0.52873	5.74353	-0.57759	2.26921
7971.245	-0.26664	6.32236	1.51330	2.03073
7975.241	NaN	NaN	-1.16004	4.28534
7979.243	3.81503	1.84813	1.08656	7.02382
7983.246	2.28189	2.18374	0.73531	5.22145
7987.242	0.47770	1.78395	0.67618	2.98143
7991.240	-0.48969	6.04447	-0.23314	4.34837
7995.242	-5.97951	2.20508	0.61340	2.17375
7999.203	-3.81941	5.57428	0.79545	3.16214
8003.242	-6.51743	3.41797	-0.39100	3.92237
8007.247	-2.59742	2.94843	-0.88818	3.00646
8011.233	-0.01770	4.75863	-0.48741	6.02057
8015.244	0.48850	4.43745	-0.65039	3.50628
8019.242	NaN	NaN	0.79392	8.30353
8023.243	NaN	NaN	NaN	NaN
8027.244	NaN	NaN	NaN	NaN
8031.202	NaN	NaN	NaN	NaN
8035.245	NaN	NaN	NaN	NaN
8039.243	NaN	NaN	NaN	NaN
8043.242	NaN	NaN	NaN	NaN
8047.240	NaN	NaN	NaN	NaN
8051.246	NaN	NaN	NaN	NaN
8055.243	NaN	NaN	NaN	NaN
8059.242	NaN	NaN	NaN	NaN
8063.240	NaN	NaN	NaN	NaN
8067.248	NaN	NaN	NaN	NaN
8071.242	NaN	NaN	NaN	NaN
8075.240	NaN	NaN	NaN	NaN
8079.245	NaN	NaN	NaN	NaN
8083.241	NaN	NaN	NaN	NaN
8087.240	NaN	NaN	NaN	NaN
8091.241	NaN	NaN	NaN	NaN
8095.200	NaN	NaN	NaN	NaN
8099.242	NaN	NaN	NaN	NaN
8103.241	NaN	NaN	NaN	NaN
8107.243	NaN	NaN	NaN	NaN
8111.243	NaN	NaN	NaN	NaN
8115.241	NaN	NaN	NaN	NaN
8119.202	NaN	NaN	NaN	NaN
8127.234	NaN	NaN	NaN	NaN
8131.246	NaN	NaN	NaN	NaN
8135.202	NaN	NaN	NaN	NaN
8139.237	NaN	NaN	NaN	NaN
8143.242	NaN	NaN	NaN	NaN
8147.207	NaN	NaN	NaN	NaN
8151.245	NaN	NaN	NaN	NaN
8155.262	NaN	NaN	NaN	NaN
8159.243	NaN	NaN	NaN	NaN
8163.243	NaN	NaN	NaN	NaN
8167.244	NaN	NaN	NaN	NaN
8171.243	NaN	NaN	NaN	NaN
8175.244	NaN	NaN	NaN	NaN
8179.250	NaN	NaN	NaN	NaN
8183.246	NaN	NaN	-1.29072	4.31688
8187.251	NaN	NaN	NaN	NaN
8191.244	NaN	NaN	NaN	NaN
8195.246	NaN	NaN	NaN	NaN
8199.245	NaN	NaN	NaN	NaN
8203.251	5.17341	12.47073	NaN	NaN
8207.253	-4.26590	7.89611	NaN	NaN
8211.245	-7.04504	8.08834	NaN	NaN
8215.206	-3.90046	4.74098	NaN	NaN
8219.235	0.92773	6.52395	NaN	NaN
8223.245	-0.80086	4.97457	NaN	NaN
8227.248	-4.15848	5.38415	NaN	NaN
8231.246	1.45894	5.42665	NaN	NaN
8235.204	5.52777	5.83246	NaN	NaN
8239.204	3.08686	4.87359	NaN	NaN
8243.246	1.57009	9.05018	NaN	NaN
8247.246	-4.49625	4.37350	NaN	NaN
8251.249	-3.96916	4.47674	NaN	NaN
8255.204	-4.31918	5.44352	NaN	NaN
8259.245	-2.94188	5.92132	NaN	NaN
8263.212	-2.65235	5.89096	NaN	NaN
8267.245	-3.94945	4.45676	NaN	NaN
8271.246	-2.78577	5.13672	NaN	NaN
8275.247	-3.51159	6.12226	NaN	NaN
8279.246	-2.84437	4.70268	NaN	NaN
8283.247	-2.58056	5.27877	NaN	NaN
8287.245	-3.11255	4.64613	NaN	NaN
8291.244	-3.33641	4.10809	NaN	NaN
8295.247	-3.11195	5.36279	NaN	NaN
8299.249	-2.90807	5.62078	NaN	NaN
8303.205	-3.47438	5.80218	7.82182	0.18308
8307.266	-4.44684	5.32827	8.14448	-0.38299
8311.250	-2.93708	5.57408	0.86937	2.31585
8315.248	-3.19645	5.47026	0.38189	0.75640
8319.248	-2.15167	4.30635	0.16107	1.54909
8323.248	-2.82845	5.68768	NaN	NaN
8327.246	-3.06070	5.52579	NaN	NaN
8331.246	-2.58133	5.61931	NaN	NaN
8335.245	-2.80454	5.15803	NaN	NaN
8339.247	-2.16446	5.45642	NaN	NaN
8343.245	-2.61117	4.26601	NaN	NaN
8347.245	-1.53634	5.42129	NaN	NaN
8351.248	-3.19830	5.29493	NaN	NaN
8355.248	-2.70270	5.11718	NaN	NaN
8359.246	-2.18694	5.24056	NaN	NaN
8363.247	-3.15362	5.46898	NaN	NaN
8367.247	-2.88260	5.53990	NaN	NaN
8371.249	-3.08503	5.59525	NaN	NaN
8375.246	-3.14701	5.62871	NaN	NaN
8379.252	-3.11143	5.48622	NaN	NaN
8383.248	-2.91223	5.62383	NaN	NaN
8387.222	-2.74499	4.72758	NaN	NaN
8391.246	-2.97349	5.64894	NaN	NaN
8395.247	-2.55579	5.42141	NaN	NaN
8399.249	-3.28739	5.79055	NaN	NaN
8403.248	-2.77312	5.19032	NaN	NaN
8407.246	-3.23479	5.30072	NaN	NaN
8411.253	-2.85202	5.45246	NaN	NaN
8415.248	-5.06141	4.55881	NaN	NaN
8419.208	-2.73615	5.12293	NaN	NaN
8423.248	-2.65845	5.46188	NaN	NaN
8427.250	-3.19739	5.38624	NaN	NaN
8431.248	-2.48257	4.46744	NaN	NaN
8435.209	-2.48993	4.92243	NaN	NaN
8439.250	-2.53981	5.16451	NaN	NaN
8443.209	-2.78446	4.83806	NaN	NaN
8447.248	-3.02687	4.49733	NaN	NaN
8451.209	-2.83524	4.31920	NaN	NaN
8455.250	-2.61805	4.28734	NaN	NaN
8459.249	-3.36965	4.35944	NaN	NaN
8463.250	-2.91099	4.55775	NaN	NaN
8467.251	-2.39574	4.73215	NaN	NaN
8471.217	-2.44415	4.54954	NaN	NaN
8475.249	-2.37706	4.53560	NaN	NaN
8479.248	-2.57147	4.57502	NaN	NaN
8483.247	-2.34864	4.52409	NaN	NaN
8487.210	-2.77359	4.68664	NaN	NaN
8491.249	-2.99552	4.46564	NaN	NaN
8495.249	-2.71379	4.70854	NaN	NaN
8499.248	-2.50115	4.80551	NaN	NaN
8503.209	-2.86299	4.75814	12.50955	-14.18312
8507.150	-2.69378	5.19963	1.10767	3.01406
8511.231	-2.40424	4.56440	8.69593	-13.00529
8515.223	-2.20250	4.39937	9.98839	-12.97211
8519.251	-2.71119	4.82596	0.23358	2.95904
8523.151	-2.35635	4.98775	0.93897	2.98895
8527.249	-2.92096	4.94057	0.46296	0.38790
8531.250	-2.21722	4.76082	0.37511	2.90866
8535.209	-1.78116	4.71371	-19.99372	-12.28867
8539.155	-1.69307	4.66745	-19.99372	-12.27560
8543.247	-2.11546	4.36425	-19.99372	-12.26162
8547.248	-2.51898	4.22104	-19.99372	-12.21541
8551.246	-2.45336	4.78005	-19.99372	-12.18873
8555.121	-2.30105	4.64434	-19.99372	-12.12859
8559.249	-1.96070	5.77785	NaN	NaN
8563.250	-2.29153	5.65941	NaN	NaN
8567.249	-1.75230	4.91860	0.30319	0.14797
8571.213	-1.76487	4.64595	NaN	NaN
8575.250	-1.57530	4.55772	NaN	NaN
8579.250	-2.13941	4.55467	NaN	NaN
8583.251	-1.78582	4.29084	NaN	NaN
8587.152	-1.39986	4.35690	NaN	NaN
8591.251	-2.00242	4.66395	NaN	NaN
8595.225	-1.62252	4.45520	NaN	NaN
8599.251	-1.76591	4.32064	NaN	NaN
8603.152	-1.79510	4.67383	NaN	NaN
8607.251	-1.74786	5.06972	NaN	NaN
8611.253	-1.52461	4.73433	NaN	NaN
8615.251	-1.42503	4.30508	NaN	NaN
8619.154	-1.10008	4.21336	NaN	NaN
8623.212	-1.08567	5.09122	0.00171	1.26874
8627.129	-2.10969	4.64906	0.03370	2.04571
8631.251	-1.86729	4.46689	NaN	NaN
8635.123	-1.76207	4.84083	0.04544	-0.62421
8639.128	-1.97741	4.50345	NaN	NaN
8643.093	-1.95411	5.05740	NaN	NaN
8647.127	-0.94867	4.04976	NaN	NaN
8651.127	-0.95197	3.74732	NaN	NaN
8655.119	-0.70402	4.13964	NaN	NaN
8659.129	-0.50433	4.91234	NaN	NaN
8663.127	-0.78992	4.80323	NaN	NaN
8667.127	-2.46897	5.55858	-0.07145	-1.12654
8671.127	-1.64228	4.70734	0.62322	-1.33435
8675.128	-1.06989	4.72207	NaN	NaN
8679.127	-1.64838	3.92947	NaN	NaN
8683.130	-1.43292	2.96287	NaN	NaN
8687.085	-1.16875	5.02230	NaN	NaN
8691.130	-1.40767	5.04782	NaN	NaN
8695.127	-1.32342	3.93161	NaN	NaN
8699.122	-2.22119	4.53858	NaN	NaN
8703.128	-1.64179	4.61678	NaN	NaN
8707.129	-1.16302	5.29258	NaN	NaN
8711.129	2.98824	5.56436	NaN	NaN
8715.122	3.05046	5.02316	NaN	NaN
8719.133	3.72926	4.73549	NaN	NaN
8723.131	5.35709	3.47727	NaN	NaN
8727.128	4.90198	3.87105	NaN	NaN
8731.131	6.25698	4.41487	NaN	NaN
8735.085	5.07121	3.87720	NaN	NaN
8739.127	4.01769	4.28884	NaN	NaN
8743.127	4.24278	4.71882	NaN	NaN
8747.130	4.32052	5.03110	NaN	NaN
8751.125	4.17117	5.27704	NaN	NaN
8755.127	4.72546	4.40304	NaN	NaN
8759.130	4.47129	4.15784	NaN	NaN
8763.129	4.13819	5.18558	NaN	NaN
8767.129	4.17786	5.65715	NaN	NaN
8771.128	4.02902	4.20262	NaN	NaN
8775.127	4.52252	4.33608	NaN	NaN
8779.121	4.32185	4.46598	NaN	NaN
8783.131	4.67352	4.31170	NaN	NaN
8787.131	5.08003	4.20340	NaN	NaN
8791.128	4.61519	3.99877	NaN	NaN
8795.124	4.15021	5.09501	NaN	NaN
8799.131	4.51440	5.04948	NaN	NaN
8803.129	4.37961	5.12412	NaN	NaN
8807.127	4.60555	4.73939	NaN	NaN
8811.157	4.66699	4.18651	NaN	NaN
8815.129	4.72125	4.79604	NaN	NaN
8819.130	5.03395	4.36195	NaN	NaN
8823.130	5.33310	4.44379	NaN	NaN
8827.125	5.23556	5.22174	NaN	NaN
8831.129	5.24513	5.01123	NaN	NaN
8835.087	4.82501	6.75842	NaN	NaN
8839.131	4.16932	7.15906	NaN	NaN
8843.132	4.36659	7.23780	NaN	NaN
8847.131	3.91511	7.19306	NaN	NaN
8851.129	4.01176	7.10945	NaN	NaN
8855.128	3.93697	7.21478	NaN	NaN
8859.130	4.40290	7.20821	NaN	NaN
8863.129	4.16937	7.32420	NaN	NaN
8867.130	3.74703	6.23136	NaN	NaN
8871.129	4.82905	6.87480	NaN	NaN
8875.156	6.72712	6.57379	NaN	NaN
8879.089	7.87406	7.65228	NaN	NaN
8883.129	9.22158	12.21791	NaN	NaN
8887.129	NaN	NaN	NaN	NaN
8891.136	NaN	NaN	NaN	NaN
8895.132	NaN	NaN	NaN	NaN
8899.130	NaN	NaN	NaN	NaN
8903.134	NaN	NaN	NaN	NaN
8907.128	NaN	NaN	NaN	NaN
8911.130	NaN	NaN	NaN	NaN
8915.130	NaN	NaN	NaN	NaN
8919.129	NaN	NaN	NaN	NaN
8923.130	NaN	NaN	NaN	NaN
8927.131	NaN	NaN	NaN	NaN
8931.125	NaN	NaN	NaN	NaN
8935.090	NaN	NaN	NaN	NaN
8939.088	NaN	NaN	NaN	NaN
8943.128	NaN	NaN	NaN	NaN
8947.129	NaN	NaN	NaN	NaN
8951.129	NaN	NaN	NaN	NaN
8955.129	NaN	NaN	NaN	NaN
8959.131	NaN	NaN	NaN	NaN
8963.126	NaN	NaN	NaN	NaN
8967.134	NaN	NaN	NaN	NaN
8971.091	NaN	NaN	NaN	NaN
8975.102	NaN	NaN	NaN	NaN
8979.134	NaN	NaN	NaN	NaN
8983.132	NaN	NaN	NaN	NaN
8987.146	NaN	NaN	NaN	NaN
8991.133	NaN	NaN	NaN	NaN
8995.135	NaN	NaN	NaN	NaN
8999.131	NaN	NaN	NaN	NaN
9003.092	NaN	NaN	NaN	NaN
9007.091	NaN	NaN	NaN	NaN
9011.136	NaN	NaN	NaN	NaN
9015.147	NaN	NaN	NaN	NaN
9019.134	NaN	NaN	NaN	NaN
9023.132	NaN	NaN	NaN	NaN
9027.131	-5.54725	9.02588	NaN	NaN
9031.158	NaN	NaN	NaN	NaN
9035.132	-4.80785	9.01074	NaN	NaN
9039.134	-5.50181	7.22926	NaN	NaN
9043.133	-6.01574	3.11284	NaN	NaN
9047.135	-2.79476	5.36579	NaN	NaN
9051.132	9.40849	6.65309	NaN	NaN
9055.133	9.42598	5.94265	NaN	NaN
9059.100	9.39006	5.92592	NaN	NaN
9063.137	9.41098	5.97971	NaN	NaN
9067.134	-2.28266	2.48119	NaN	NaN
9071.134	-2.47227	-0.20452	NaN	NaN
9075.135	-2.37709	3.25462	NaN	NaN
9079.136	-2.72758	1.64384	NaN	NaN
9083.136	0.26331	5.50664	NaN	NaN
9087.133	-0.17946	3.33423	NaN	NaN
9091.133	0.49220	5.28822	NaN	NaN
9095.130	0.53359	5.06726	NaN	NaN
9099.123	0.14747	5.43924	NaN	NaN
9103.136	1.36588	3.04436	NaN	NaN
9107.134	1.98707	4.74271	NaN	NaN
9111.137	3.49545	2.98892	NaN	NaN
9115.133	2.41546	2.36146	NaN	NaN
9119.132	3.06548	2.91994	NaN	NaN
9123.133	2.30903	3.78839	NaN	NaN
9127.127	3.45818	3.31016	NaN	NaN
9131.134	2.65753	3.35674	NaN	NaN
9135.133	3.20206	4.25434	NaN	NaN
9139.091	2.92361	4.42574	NaN	NaN
9143.136	2.62600	4.46641	NaN	NaN
9147.136	3.16451	4.31886	NaN	NaN
9151.134	1.87825	4.71864	NaN	NaN
9155.134	2.98099	4.42053	NaN	NaN
9159.136	2.08800	4.67137	NaN	NaN
9163.133	2.58759	4.68089	NaN	NaN
9167.137	2.69299	4.51511	NaN	NaN
9171.135	1.66140	4.86106	NaN	NaN
9175.137	2.18054	4.29286	NaN	NaN
9179.137	1.91806	4.40075	NaN	NaN
9183.108	1.45810	4.50756	NaN	NaN
9187.135	2.98425	4.08143	NaN	NaN
9191.097	1.68245	3.51054	NaN	NaN
9195.134	2.49387	2.90560	NaN	NaN
9199.138	2.22728	3.09599	NaN	NaN
9203.134	1.63333	4.12775	NaN	NaN
9207.144	1.73921	4.06155	NaN	NaN
9211.136	1.82341	3.12915	NaN	NaN
9215.136	1.50792	2.85737	NaN	NaN
9219.134	1.88866	3.65939	NaN	NaN
9223.097	2.03462	4.25434	NaN	NaN
9227.134	1.47628	2.62980	NaN	NaN
9231.137	2.18022	3.08215	NaN	NaN
9235.139	1.64709	3.68705	NaN	NaN
9239.097	1.52672	4.16258	NaN	NaN
9243.138	2.65409	3.43922	NaN	NaN
9247.137	1.42149	2.90682	NaN	NaN
9251.137	3.63554	2.65251	NaN	NaN
9255.135	2.61330	3.43463	NaN	NaN
9259.137	2.45621	3.35024	NaN	NaN
9263.137	1.44515	3.06717	NaN	NaN
9267.139	1.94597	3.14611	NaN	NaN
9271.107	2.50989	3.71266	NaN	NaN
9275.137	2.30206	2.93613	NaN	NaN
9279.137	2.19670	2.88878	NaN	NaN
9283.138	2.05058	3.51710	NaN	NaN
9287.139	2.28591	3.22926	NaN	NaN
9291.139	1.91588	3.52751	NaN	NaN
9295.138	2.06498	3.57026	NaN	NaN
9299.037	2.23794	3.43709	NaN	NaN
9303.133	1.88737	3.39993	NaN	NaN
9307.115	2.07120	3.68926	NaN	NaN
9311.137	1.97681	3.84968	NaN	NaN
9315.150	2.04009	3.68995	NaN	NaN
9319.136	2.02820	4.11956	NaN	NaN
9323.136	1.64980	3.47160	NaN	NaN
9327.138	2.25258	3.07375	NaN	NaN
9331.038	2.16922	3.89598	NaN	NaN
9335.135	1.91603	3.71404	NaN	NaN
9339.138	1.96640	4.26247	NaN	NaN
9343.138	1.24496	2.94025	NaN	NaN
9347.136	2.55525	4.01063	NaN	NaN
9351.128	2.05787	3.46808	NaN	NaN
9355.136	1.77868	4.55750	NaN	NaN
9359.136	1.63026	2.70255	NaN	NaN
9363.137	2.22428	2.94859	NaN	NaN
9367.138	2.51552	3.21447	NaN	NaN
9371.108	1.75609	4.03591	NaN	NaN
9375.139	2.00775	4.48721	NaN	NaN
9379.143	2.33130	5.02675	NaN	NaN
9383.140	2.23219	3.25933	NaN	NaN
9387.140	3.04553	3.07711	NaN	NaN
9391.137	1.27031	3.52730	NaN	NaN
9395.140	-0.89168	2.49995	NaN	NaN
9399.137	9.02883	10.52449	NaN	NaN
9403.139	NaN	NaN	NaN	NaN
9407.135	NaN	NaN	NaN	NaN
9411.138	NaN	NaN	NaN	NaN
9415.142	NaN	NaN	NaN	NaN
9419.097	NaN	NaN	NaN	NaN
9423.140	NaN	NaN	NaN	NaN
9427.138	NaN	NaN	NaN	NaN
9431.137	NaN	NaN	NaN	NaN
9435.098	NaN	NaN	NaN	NaN
9439.140	NaN	NaN	NaN	NaN
9443.098	NaN	NaN	NaN	NaN
9447.139	NaN	NaN	NaN	NaN
9451.136	NaN	NaN	NaN	NaN
9455.141	NaN	NaN	NaN	NaN
9459.137	NaN	NaN	NaN	NaN
9463.137	NaN	NaN	NaN	NaN
9467.137	NaN	NaN	NaN	NaN
9471.137	NaN	NaN	NaN	NaN
9475.139	NaN	NaN	NaN	NaN
9479.140	NaN	NaN	NaN	NaN
9483.141	NaN	NaN	NaN	NaN
9487.141	NaN	NaN	NaN	NaN
9491.142	NaN	NaN	NaN	NaN
9495.146	NaN	NaN	NaN	NaN
9499.141	NaN	NaN	NaN	NaN
9503.145	NaN	NaN	NaN	NaN
9507.119	NaN	NaN	NaN	NaN
9511.141	NaN	NaN	NaN	NaN
9515.134	NaN	NaN	NaN	NaN
9519.140	NaN	NaN	NaN	NaN
9523.139	NaN	NaN	NaN	NaN
9527.140	NaN	NaN	NaN	NaN
9531.138	NaN	NaN	NaN	NaN
9535.140	NaN	NaN	8.19808	11.02390
9539.138	1.63266	2.67561	NaN	NaN
9543.138	-1.19175	0.51656	NaN	NaN
9547.139	1.98601	1.80999	NaN	NaN
9551.138	3.70025	4.73557	NaN	NaN
9555.134	12.58063	5.65835	NaN	NaN
9559.130	4.81500	4.41256	NaN	NaN
9563.139	0.62134	2.66902	NaN	NaN
9567.143	0.42219	2.09980	NaN	NaN
9571.142	-1.69150	2.82233	NaN	NaN
9575.102	2.60760	4.30688	NaN	NaN
9579.139	0.62811	2.30085	NaN	NaN
9583.143	3.29092	2.35290	NaN	NaN
9587.141	2.77678	3.13090	NaN	NaN
9591.140	1.24813	3.07438	NaN	NaN
9595.150	3.18809	2.81618	NaN	NaN
9599.114	3.16159	4.33237	NaN	NaN
9603.146	3.50937	4.66374	NaN	NaN
9607.141	3.76935	3.11235	NaN	NaN
9611.142	3.51095	2.83346	NaN	NaN
9615.147	4.14120	4.01496	NaN	NaN
9619.144	3.83621	2.88981	NaN	NaN
9623.140	3.75692	4.82702	NaN	NaN
9627.141	3.71473	3.18058	NaN	NaN
9631.144	3.67697	4.89137	NaN	NaN
9635.145	3.98015	3.00569	NaN	NaN
9639.101	3.77918	4.42278	NaN	NaN
9643.102	3.83480	5.55035	NaN	NaN
9647.141	4.09448	3.25962	NaN	NaN
9651.143	3.55184	5.02329	NaN	NaN
9655.016	4.07068	2.96995	NaN	NaN
9659.144	3.80878	4.15950	NaN	NaN
9663.018	3.67465	3.35227	NaN	NaN
9667.019	3.50912	3.94890	NaN	NaN
9671.047	3.55713	5.15631	NaN	NaN
9675.021	4.43559	3.40161	NaN	NaN
9679.019	3.58949	3.30325	NaN	NaN
9683.016	3.64842	3.33660	NaN	NaN
9686.990	3.89328	2.98659	NaN	NaN
9690.975	3.53530	2.99940	NaN	NaN
9695.014	3.61134	3.20253	NaN	NaN
9699.018	3.47660	3.12728	NaN	NaN
9703.019	4.06369	3.22352	NaN	NaN
9707.020	3.50699	4.26956	NaN	NaN
9711.018	3.59100	4.75905	NaN	NaN
9715.012	3.59416	3.06220	NaN	NaN
9719.018	3.43059	3.55887	NaN	NaN
9723.018	3.74466	3.66015	NaN	NaN
9727.008	3.69138	5.92196	NaN	NaN
9731.010	3.46812	3.60111	NaN	NaN
9735.017	3.87129	3.21367	NaN	NaN
9739.019	3.80243	2.87365	NaN	NaN
9743.015	3.90140	3.35505	NaN	NaN
9747.020	3.97755	2.70656	NaN	NaN
9751.019	3.65356	2.84267	NaN	NaN
9754.976	3.81718	3.41534	NaN	NaN
9758.981	3.79747	3.94704	NaN	NaN
9763.021	3.91032	3.43915	NaN	NaN
9767.024	4.04574	4.22640	NaN	NaN
9771.022	3.97410	3.04360	NaN	NaN
9775.017	3.54497	4.73966	NaN	NaN
9779.021	3.88522	3.20586	NaN	NaN
9783.019	3.74068	3.74111	NaN	NaN
9787.024	3.68255	4.71732	NaN	NaN
9791.023	3.64531	3.46988	NaN	NaN
9795.019	3.69973	4.14152	NaN	NaN
9799.020	3.76136	4.70308	NaN	NaN
9803.019	3.89461	3.46676	NaN	NaN
9807.045	3.74594	3.65600	NaN	NaN
9811.002	3.72449	4.77999	NaN	NaN
9814.977	3.77174	3.40203	NaN	NaN
9818.977	3.73954	4.47900	NaN	NaN
9823.021	4.07239	3.24456	NaN	NaN
9827.019	4.03031	4.67179	NaN	NaN
9831.019	4.35437	3.53598	NaN	NaN
9835.018	4.26341	3.69922	NaN	NaN
9839.017	4.27020	5.21371	NaN	NaN
9843.018	3.75311	4.67032	NaN	NaN
9847.022	4.32513	4.80884	NaN	NaN
9851.017	3.11237	5.09756	NaN	NaN
9855.016	9.91339	7.90012	NaN	NaN
9859.019	11.26128	7.02539	NaN	NaN
9863.018	9.76420	7.65500	NaN	NaN
9867.019	5.38272	12.12434	NaN	NaN
9871.020	NaN	NaN	NaN	NaN
9875.019	NaN	NaN	NaN	NaN
9879.020	NaN	NaN	NaN	NaN
9883.023	NaN	NaN	NaN	NaN
9886.979	NaN	NaN	NaN	NaN
9891.025	NaN	NaN	NaN	NaN
9895.022	NaN	NaN	NaN	NaN
9899.018	NaN	NaN	NaN	NaN
9903.022	NaN	NaN	NaN	NaN
9907.022	NaN	NaN	NaN	NaN
9911.019	NaN	NaN	NaN	NaN
9914.993	NaN	NaN	NaN	NaN
9919.021	NaN	NaN	NaN	NaN
9922.980	NaN	NaN	NaN	NaN
9927.020	NaN	NaN	NaN	NaN
9931.021	NaN	NaN	NaN	NaN
9935.011	NaN	NaN	NaN	NaN
9939.018	NaN	NaN	NaN	NaN
9942.980	NaN	NaN	NaN	NaN
9947.021	NaN	NaN	NaN	NaN
9951.022	NaN	NaN	NaN	NaN
9955.021	NaN	NaN	NaN	NaN
9958.982	NaN	NaN	NaN	NaN
9963.022	NaN	NaN	NaN	NaN
9967.023	NaN	NaN	NaN	NaN
9971.024	NaN	NaN	NaN	NaN
9975.023	NaN	NaN	NaN	NaN
9978.990	NaN	NaN	NaN	NaN
9982.981	NaN	NaN	NaN	NaN
9987.024	NaN	NaN	NaN	NaN
9990.980	NaN	NaN	NaN	NaN
9995.022	NaN	NaN	NaN	NaN
9999.024	NaN	NaN	NaN	NaN
10003.049	-10.19666	10.79695	NaN	NaN
10007.024	NaN	NaN	NaN	NaN
10011.023	NaN	NaN	NaN	NaN
10015.027	-8.25097	9.54521	NaN	NaN
10019.011	-8.92299	4.27445	NaN	NaN
10023.025	-8.33598	0.75029	NaN	NaN
10027.024	-7.80375	-1.45878	NaN	NaN
10031.022	-2.61803	1.98531	NaN	NaN
10035.023	-7.30564	-1.01443	NaN	NaN
10039.022	-7.39554	-1.47137	NaN	NaN
10043.025	-7.29790	-0.06579	NaN	NaN
10047.025	-4.63385	2.50094	NaN	NaN
10051.022	-1.92845	-0.13639	NaN	NaN
10055.025	-2.00752	0.28849	NaN	NaN
10059.036	-2.26938	1.65000	NaN	NaN
10063.018	-2.41028	0.54387	NaN	NaN
10067.026	-2.22371	1.97515	NaN	NaN
10071.023	-2.08327	0.86399	NaN	NaN
10075.021	-1.27269	2.15702	NaN	NaN
10079.022	-1.97860	2.55498	NaN	NaN
10083.025	-1.21933	2.30788	NaN	NaN
10087.023	-1.74181	3.87786	NaN	NaN
10091.025	-1.64513	2.93233	NaN	NaN
10095.024	-1.38131	4.17844	NaN	NaN
10099.023	-1.45036	2.88114	NaN	NaN
10102.996	-1.51462	3.54302	NaN	NaN
10107.023	-1.07748	2.74422	NaN	NaN
10111.023	-1.37196	4.12014	NaN	NaN
10115.023	-1.18820	2.66890	NaN	NaN
10119.027	-1.23136	3.28918	NaN	NaN
10123.024	-1.12948	4.02864	NaN	NaN
10127.023	-1.24920	3.86740	NaN	NaN
10131.024	-1.43525	4.22539	NaN	NaN
10135.024	-1.18408	4.01536	NaN	NaN
10139.026	-1.51100	4.13588	NaN	NaN
10143.015	-1.18877	3.51026	NaN	NaN
10147.027	-1.30541	3.14510	NaN	NaN
10151.024	-1.18597	1.85347	NaN	NaN
10155.025	-1.97173	4.27317	NaN	NaN
10159.025	-1.10157	3.26895	NaN	NaN
10163.028	-0.95797	1.96078	NaN	NaN
10167.025	-1.83957	3.61180	NaN	NaN
10171.025	-1.12913	2.57581	NaN	NaN
10175.026	-1.22432	3.39800	NaN	NaN
10179.028	-2.09358	3.72059	NaN	NaN
10183.026	-1.32031	3.07211	NaN	NaN
10186.996	-1.62864	2.42320	NaN	NaN
10191.032	-1.23114	3.35863	NaN	NaN
10195.029	-1.23637	3.62752	NaN	NaN
10199.024	-1.43071	3.29998	NaN	NaN
10202.997	-1.23608	3.67198	NaN	NaN
10207.033	-1.43560	3.69964	NaN	NaN
10211.025	-1.27333	2.52604	NaN	NaN
10215.027	-1.10591	3.20116	NaN	NaN
10219.029	-0.18000	3.35389	NaN	NaN
10223.026	1.31731	3.11849	NaN	NaN
10227.010	2.25788	3.80192	NaN	NaN
10231.030	5.12974	3.05151	NaN	NaN
10234.984	4.93652	2.64936	NaN	NaN
10239.029	5.20890	3.03455	NaN	NaN
10243.023	5.79809	2.32368	NaN	NaN
10247.028	5.77905	3.38566	NaN	NaN
10251.040	5.50867	2.28642	NaN	NaN
10255.030	5.88611	4.02086	NaN	NaN
10259.027	5.85615	2.23677	NaN	NaN
10263.027	5.11851	3.96478	NaN	NaN
10267.023	6.20874	2.00505	NaN	NaN
10271.019	5.78445	2.97028	NaN	NaN
10275.021	6.48296	3.91478	NaN	NaN
10279.028	5.90448	2.11571	NaN	NaN
10283.028	6.09184	2.49485	NaN	NaN
10287.027	6.08492	2.02817	NaN	NaN
10291.027	6.31027	2.67341	NaN	NaN
10295.029	5.92643	3.09944	NaN	NaN
10299.026	5.98498	2.62160	NaN	NaN
10303.028	6.15514	2.60273	NaN	NaN
10307.035	5.99365	2.47170	NaN	NaN
10311.004	6.09697	2.42318	NaN	NaN
10315.028	6.12448	2.26532	NaN	NaN
10319.031	6.01319	0.67108	NaN	NaN
10323.033	5.96203	2.94545	NaN	NaN
10327.026	6.13314	2.99715	NaN	NaN
10331.030	6.15701	3.00360	NaN	NaN
10335.028	6.35584	2.77497	NaN	NaN
10338.930	6.25181	2.37183	NaN	NaN
10343.030	6.39687	2.45293	NaN	NaN
10347.030	6.49051	0.76134	NaN	NaN
10351.030	6.67955	2.30064	NaN	NaN
10354.931	6.33326	3.33947	NaN	NaN
10359.027	6.39038	3.06377	NaN	NaN
10363.027	6.40614	2.80908	NaN	NaN
10367.029	6.32238	2.51620	NaN	NaN
10371.032	6.63776	1.62600	NaN	NaN
10375.027	6.63587	1.19578	NaN	NaN
10379.027	6.33679	2.52152	NaN	NaN
10383.027	6.09057	4.26528	NaN	NaN
10386.931	6.53355	3.22097	NaN	NaN
10391.029	5.87938	2.76967	NaN	NaN
10394.996	6.36910	2.50483	NaN	NaN
10399.030	5.93397	2.05238	NaN	NaN
10403.028	5.98110	2.07824	NaN	NaN
10407.027	5.63655	4.03320	NaN	NaN
10411.029	6.31247	2.92396	NaN	NaN
10415.029	5.51787	3.95117	NaN	NaN
10418.931	6.00877	2.86208	NaN	NaN
10423.029	5.44997	2.88904	NaN	NaN
10427.028	5.83427	2.61546	NaN	NaN
10431.032	5.82312	3.30069	NaN	NaN
10434.907	5.95174	3.40168	NaN	NaN
10439.030	6.14150	0.89211	NaN	NaN
10443.030	5.91720	2.36514	NaN	NaN
10447.029	6.18517	2.94027	NaN	NaN
10450.934	5.82049	3.89925	NaN	NaN
10455.031	5.83653	2.20663	NaN	NaN
10459.031	5.51091	3.83311	NaN	NaN
10463.031	5.96090	3.99272	NaN	NaN
10466.930	6.27783	3.12510	NaN	NaN
10471.030	5.88636	4.37578	NaN	NaN
10475.029	6.34388	4.64886	NaN	NaN
10478.996	13.19651	4.43902	NaN	NaN
10483.027	12.98678	7.99859	NaN	NaN
10486.988	9.80106	5.63954	NaN	NaN
10491.031	NaN	NaN	10.33118	8.33174
10495.031	NaN	NaN	NaN	NaN
10499.030	NaN	NaN	NaN	NaN
10503.039	NaN	NaN	NaN	NaN
10507.036	NaN	NaN	NaN	NaN
10511.031	NaN	NaN	NaN	NaN
10515.030	NaN	NaN	NaN	NaN
10518.966	NaN	NaN	NaN	NaN
10523.031	NaN	NaN	NaN	NaN
10527.032	NaN	NaN	NaN	NaN
10531.028	NaN	NaN	NaN	NaN
10535.029	NaN	NaN	NaN	NaN
10539.028	NaN	NaN	NaN	NaN
10543.029	NaN	NaN	NaN	NaN
10547.031	NaN	NaN	NaN	NaN
10551.032	NaN	NaN	NaN	NaN
10554.992	NaN	NaN	NaN	NaN
10559.023	NaN	NaN	NaN	NaN
10562.989	NaN	NaN	NaN	NaN
10566.903	NaN	NaN	NaN	NaN
10571.032	NaN	NaN	NaN	NaN
10575.033	NaN	NaN	NaN	NaN
10579.033	NaN	NaN	NaN	NaN
10583.032	NaN	NaN	NaN	NaN
10587.009	NaN	NaN	4.98162	3.11984
10591.032	NaN	NaN	NaN	NaN
10595.005	NaN	NaN	NaN	NaN
10598.935	NaN	NaN	NaN	NaN
10602.990	NaN	NaN	10.86397	3.55900
10607.045	-9.21193	0.79792	1.84550	-5.08608
10611.030	-5.22874	4.55270	5.05580	-1.38273
10614.934	NaN	NaN	4.72761	-1.53098
10618.990	-6.47973	2.02636	NaN	NaN
10623.033	-4.27049	0.60424	9.53086	0.39388
10626.990	-6.18870	0.09373	4.86138	-1.07380
10630.994	-5.26886	1.41283	3.22072	-1.28915
10635.034	2.13601	3.92437	10.35318	-0.11963
10639.036	1.16637	3.08892	7.16766	-1.09886
10643.013	-2.02153	1.92716	10.88266	-1.72433
10646.933	1.34931	2.04383	7.05924	-0.50008
10651.032	-2.78030	3.09174	2.96275	1.31179
10654.995	-0.22400	3.20656	0.63717	-1.07789
10659.033	-1.24769	4.60102	2.15185	-1.09152
10662.907	-0.19365	4.01817	NaN	NaN
10667.033	1.91516	3.99885	NaN	NaN
10671.032	0.43447	3.51915	NaN	NaN
10675.032	-1.78674	4.02149	NaN	NaN
10678.934	0.69186	4.35474	7.04012	-13.52674
10683.029	-0.78402	4.56692	-19.99372	-12.11966
10687.032	-0.41859	4.87459	2.38960	-14.40355
10690.990	0.50071	3.92417	-19.99372	-12.11991
10694.936	-1.24163	3.67866	-19.99372	-12.11386
10698.908	0.45582	4.50472	-19.99372	-12.10917
10702.910	-0.81243	4.38629	-19.99372	-12.10540
10706.911	-1.86060	5.06066	-19.99372	-12.10451
10710.934	-0.01941	4.82883	-19.99372	-12.10352
10714.907	0.98494	4.19169	-19.99372	-12.10245
10718.909	-2.01201	4.94329	-19.99372	-12.10129
10722.911	0.45105	4.50406	-19.99372	-12.08113
10726.908	0.67285	5.35476	-19.99372	-12.08095
10730.892	0.52093	3.55265	NaN	NaN
10734.908	-0.33230	5.07696	NaN	NaN
10738.910	0.53500	4.87446	NaN	NaN
10742.900	-0.34144	3.73495	NaN	NaN
10746.910	0.21976	4.73137	1.22330	-0.70224
10750.910	0.44510	4.80295	4.94632	-0.76738
10754.909	0.39859	4.75251	4.82599	-0.30966
10759.039	0.46482	5.02508	3.18677	-0.42480
10762.909	0.41117	4.90612	NaN	NaN
10766.909	0.46272	4.98582	NaN	NaN
10770.910	1.19222	4.39944	NaN	NaN
10774.909	0.53543	4.86552	NaN	NaN
10778.909	-0.09989	5.57405	4.74163	0.69413
10782.911	2.23910	4.87671	2.23400	0.85931
10786.909	0.50974	5.06338	4.06559	-0.21155
10791.038	-0.58865	5.51919	4.60483	0.77859
10794.911	2.34584	4.93444	4.23939	0.95109
10798.886	0.51056	5.08885	3.80438	-0.12754
10802.869	0.64230	4.90626	4.27661	0.53823
10806.914	0.83553	5.14839	3.17539	0.66843
10810.912	0.25120	4.85318	4.76214	0.76103
10814.869	-0.38641	4.94466	NaN	NaN
10818.910	-0.37015	4.84994	NaN	NaN
10822.884	0.97410	4.80689	NaN	NaN
10826.909	NaN	NaN	5.59019	-1.05654
10830.910	-0.35598	4.73344	4.20106	-0.42627
10834.910	NaN	NaN	4.40880	0.07623
10838.904	-0.91450	4.69253	3.43808	0.16768
10842.908	NaN	NaN	3.83218	0.27355
10846.908	1.67020	4.60268	3.46199	-0.05953
10850.910	NaN	NaN	4.70473	0.80079
10854.900	NaN	NaN	2.85425	-0.33609
10858.903	1.37087	4.47477	4.56062	0.29635
10862.912	NaN	NaN	4.44583	0.42118
10866.911	-2.02668	5.92812	3.37180	-1.39495
10870.937	-0.27016	3.53350	4.74873	0.28265
10874.910	0.02601	4.74851	3.16223	0.25551
10878.912	NaN	NaN	4.82944	0.05497
10882.913	NaN	NaN	3.29463	0.56677
10886.916	0.18948	4.22404	5.41957	1.18291
10890.911	NaN	NaN	2.50667	0.04181
10894.914	NaN	NaN	4.77274	0.19191
10898.884	0.27247	4.17442	1.49259	0.30673
10902.906	NaN	NaN	5.98864	0.34576
10906.914	NaN	NaN	2.13822	0.46497
10910.879	NaN	NaN	5.84065	0.39262
10914.913	0.16231	3.57951	2.22755	0.33955
10918.904	NaN	NaN	6.19287	0.76912
10922.923	0.29865	4.26743	NaN	NaN
10926.913	2.07526	5.40810	2.28985	0.64355
10930.910	1.05500	7.95514	6.34760	2.12769
10934.907	2.14139	7.03423	5.60529	2.66112
10938.913	1.13883	6.90583	NaN	NaN
10942.909	0.85585	5.54912	2.13477	0.86481
10946.911	2.23677	4.85044	NaN	NaN
10950.912	2.38705	5.79385	6.94425	2.84085
10954.911	2.01206	4.79095	2.59356	1.30146
10958.911	1.72922	6.34997	6.17519	2.59270
10962.911	2.26170	4.64015	7.44542	1.75503
10966.913	0.71958	5.14192	2.86215	1.71603
10970.911	1.51035	7.13438	6.04249	1.97564
10974.914	NaN	NaN	6.16005	1.97876
10978.915	1.84277	4.35639	2.78141	3.48502
10982.906	0.84419	5.10324	5.91978	2.75657
10986.912	1.91204	5.07140	6.10902	1.42679
10990.913	2.97911	4.59522	5.83849	2.57922
10994.914	1.46898	5.69475	6.21752	1.61737
10998.910	1.60935	6.73865	6.51275	1.55407
11002.873	0.45840	5.06779	5.54353	2.77988
11006.913	1.67923	4.93371	6.00602	2.67307
11010.871	3.12098	4.74063	5.37554	3.48814
11014.914	1.75012	5.24601	6.06512	4.13446
11018.912	0.86927	13.69816	4.99687	2.76634
11022.896	2.17353	5.04380	6.08586	2.72107
11026.916	1.89131	5.03100	10.54267	3.70937
11030.906	1.01516	12.43848	10.41666	1.45949
11034.872	1.17634	5.24584	9.65821	2.52007
11038.912	0.83463	12.99756	6.81889	2.57816
11042.914	3.22547	5.11985	7.23328	1.25759
11046.914	2.31381	5.45820	7.46529	2.59992
11050.911	0.78402	14.31776	1.66973	0.98786
11054.914	1.16143	13.07795	-2.41655	-1.86085
11058.911	2.12788	3.24000	0.68064	-1.26624
11062.915	0.22711	6.25030	0.40025	-1.40977
11066.908	0.85411	5.85528	-2.21199	-0.91861
11070.914	8.45538	7.29063	-1.00891	-0.94481
11074.912	5.70030	9.63278	4.34433	-0.96329
11078.913	-1.48501	12.46387	4.78149	4.40653
11082.913	NaN	NaN	NaN	NaN
11086.914	NaN	NaN	NaN	NaN
11090.915	NaN	NaN	NaN	NaN
11094.917	NaN	NaN	NaN	NaN
11098.914	NaN	NaN	NaN	NaN
11102.914	NaN	NaN	NaN	NaN
11106.885	NaN	NaN	NaN	NaN
11110.912	NaN	NaN	NaN	NaN
11114.912	NaN	NaN	NaN	NaN
11118.913	NaN	NaN	NaN	NaN
11122.912	NaN	NaN	NaN	NaN
11126.915	NaN	NaN	NaN	NaN
11130.913	NaN	NaN	NaN	NaN
11134.913	NaN	NaN	NaN	NaN
11138.916	NaN	NaN	NaN	NaN
11142.918	NaN	NaN	NaN	NaN
11146.898	NaN	NaN	NaN	NaN
11150.912	NaN	NaN	NaN	NaN
11154.910	NaN	NaN	NaN	NaN
11158.912	NaN	NaN	NaN	NaN
11162.915	NaN	NaN	NaN	NaN
11166.914	NaN	NaN	NaN	NaN
11170.918	NaN	NaN	NaN	NaN
11174.910	NaN	NaN	NaN	NaN
11178.914	NaN	NaN	NaN	NaN
11182.916	NaN	NaN	NaN	NaN
11186.916	NaN	NaN	NaN	NaN
11190.884	NaN	NaN	NaN	NaN
11194.929	NaN	NaN	NaN	NaN
11198.915	NaN	NaN	NaN	NaN
11202.882	NaN	NaN	NaN	NaN
11206.882	NaN	NaN	NaN	NaN
11210.920	NaN	NaN	3.97019	13.96636
11214.916	NaN	NaN	NaN	NaN
11218.914	NaN	NaN	NaN	NaN
11222.919	NaN	NaN	5.13946	1.14838
11226.916	NaN	NaN	5.58429	-1.50294
11230.896	NaN	NaN	2.79498	-2.32494
11234.889	NaN	NaN	6.94665	3.23702
11238.919	NaN	NaN	6.51944	4.94123
11242.918	NaN	NaN	7.66853	1.75023
11246.918	NaN	NaN	5.20428	0.98324
11250.910	-3.75121	2.09499	7.19151	1.65696
11254.917	NaN	NaN	10.79435	4.11370
11258.916	NaN	NaN	5.84579	1.43857
11262.918	NaN	NaN	2.78760	0.50159
11266.920	NaN	NaN	-0.44929	0.27045
11270.908	3.74404	2.58379	14.63497	3.34365
11274.877	-2.97794	-1.25247	9.59160	1.13225
11278.917	-4.25581	-0.93598	2.63083	1.35434
11282.943	3.12568	5.11849	5.49544	2.24254
11286.918	-2.26794	2.46124	3.11792	1.57087
11290.876	-2.42389	2.13167	2.04245	1.68017
11294.920	-0.80563	2.58903	4.03534	1.19959
11298.921	-2.93111	1.62825	1.45142	0.65506
11302.918	-0.04949	2.48314	3.45791	2.01365
11306.876	0.96224	4.75413	5.45233	2.46853
11310.918	1.00370	3.64849	4.47136	1.00258
11314.887	1.35980	2.72930	6.02966	2.07399
11318.921	0.73752	4.41746	4.94576	2.75063
11322.919	NaN	NaN	5.97659	1.30900
11326.917	NaN	NaN	4.86285	1.56467
11330.921	NaN	NaN	4.55781	2.55349
11334.917	NaN	NaN	7.39337	1.87431
11338.917	3.59936	14.57068	5.82375	2.09483
11342.878	NaN	NaN	8.32568	2.88185
11346.911	NaN	NaN	5.18811	0.91357
11350.918	3.75551	4.81280	4.88259	1.56280
11354.901	2.96678	4.56351	5.20794	3.93516
11358.914	3.68312	14.86073	5.54226	1.16862
11362.921	3.76253	2.46163	5.07828	-0.14143
11366.920	3.37529	2.59713	4.15364	0.53616
11370.917	3.34165	14.82847	6.37589	1.43347
11374.876	4.90341	14.45200	4.67436	0.40889
11378.819	3.46004	13.76827	5.66378	2.49833
11382.921	5.98707	11.61753	3.44243	2.30375
11386.918	2.87819	2.76776	6.25245	2.55457
11390.918	2.98366	5.32555	3.81827	-0.22508
11394.824	4.06024	11.61329	4.40438	3.20773
11398.887	3.26918	2.31501	5.24100	2.58716
11402.920	4.27592	13.18751	4.57524	0.35705
11406.923	2.20062	3.12444	4.27343	2.52014
11410.931	3.39688	3.25232	3.51379	2.08440
11414.918	8.08175	11.25877	5.03496	0.28414
11418.919	2.81335	2.75848	5.36398	2.62198
11422.920	1.61808	4.43533	5.25426	2.36144
11426.922	3.53832	3.83907	4.78878	-0.06404
11430.920	1.98192	3.08330	2.87373	-5.67900
11434.918	3.54692	3.65720	-0.26029	-6.33896
11438.923	1.39597	6.54886	2.89822	-6.63041
11442.823	3.42537	4.54253	-0.26813	-8.30235
11446.921	1.89305	5.75347	5.15354	2.39665
11450.918	3.33505	4.83369	-0.28416	-8.81327
11454.919	1.75505	5.66567	-5.36626	-8.54376
11458.829	2.84044	5.01538	-0.39673	-8.17165
11462.919	1.95007	4.32155	-5.26558	-8.49446
11466.918	2.60800	5.63505	6.96005	-0.41389
11470.919	3.00745	3.79687	-5.61537	-7.04890
11474.823	2.15415	3.52924	-0.77300	-5.34447
11478.914	2.11100	2.64717	4.70843	0.97573
11482.916	1.76420	4.33045	5.09909	0.91214
11486.922	2.87651	4.04288	5.29637	2.77899
11490.820	6.77937	5.89470	6.33378	0.84165
11494.922	2.14977	5.48248	5.46930	-0.29290
11498.922	2.04029	5.48955	4.80643	-0.71590
11502.922	1.84029	5.56013	5.07858	0.58162
11506.824	2.02626	4.75843	3.21698	1.00245
11510.920	1.82455	5.66015	5.86676	1.09954
11514.921	2.04733	5.05086	4.69778	1.92008
11518.922	2.24988	4.25135	6.11520	1.21085
11522.820	2.06540	4.70782	4.99908	2.12045
11526.923	2.08937	5.03594	5.19288	1.49367
11530.918	2.01694	4.35296	4.77131	2.23813
11534.919	1.90981	5.09969	4.29083	1.17716
11538.927	1.85504	4.82024	5.16410	2.60143
11542.919	1.74387	5.29652	5.39724	2.45404
11546.921	2.11534	4.64379	4.94265	2.22024
11550.919	1.93844	5.06484	4.80724	0.97542
11554.820	2.04931	4.79382	5.22973	2.40904
11558.919	2.25171	4.98861	4.91602	1.14712
11562.907	1.97602	4.68011	1.90195	1.46505
11566.878	2.99049	4.67140	5.07912	1.36368
11570.822	1.97775	4.53776	4.57238	2.66411
11574.921	2.41601	4.69395	4.92597	2.80183
11578.923	2.48837	4.36281	4.30845	2.04342
11582.920	2.24463	4.23217	5.54270	1.71946
11586.925	3.27833	3.43827	5.20979	2.23778
11590.921	2.25798	2.90979	2.07583	1.25371
11594.921	2.88420	2.54076	5.30232	1.75901
11598.926	2.60235	3.64844	4.25085	1.32856
11602.825	2.15009	5.79710	4.08631	1.25739
11606.889	2.72803	4.38155	4.60582	-1.23239
11610.880	3.56106	4.75312	4.76497	-1.21225
11614.923	2.50335	3.38871	4.67801	2.34431
11618.823	2.63321	2.81481	6.07702	2.72920
11622.935	3.38365	4.83589	6.35243	2.68197
11626.925	2.64772	5.92242	4.98103	1.99853
11630.923	2.36069	5.65318	0.71106	-3.30122
11634.812	2.26715	5.15679	5.64186	-3.60778
11638.922	2.10984	4.84515	9.40267	-4.10911
11642.925	1.41926	5.17498	NaN	NaN
11646.898	8.85666	7.77226	NaN	NaN
11650.921	5.60325	8.72565	NaN	NaN
11654.930	NaN	NaN	NaN	NaN
11658.923	NaN	NaN	NaN	NaN
11662.922	NaN	NaN	NaN	NaN
11666.923	NaN	NaN	NaN	NaN
11670.879	NaN	NaN	NaN	NaN
11674.922	NaN	NaN	NaN	NaN
11678.922	NaN	NaN	NaN	NaN
11682.902	NaN	NaN	NaN	NaN
11686.916	NaN	NaN	NaN	NaN
11690.880	NaN	NaN	NaN	NaN
11694.920	NaN	NaN	NaN	NaN
11698.920	NaN	NaN	NaN	NaN
11702.924	NaN	NaN	NaN	NaN
11706.921	NaN	NaN	NaN	NaN
11710.920	NaN	NaN	NaN	NaN
11714.921	NaN	NaN	NaN	NaN
11718.925	NaN	NaN	NaN	NaN
11722.925	NaN	NaN	NaN	NaN
11726.930	NaN	NaN	NaN	NaN
11730.802	NaN	NaN	NaN	NaN
11734.916	NaN	NaN	NaN	NaN
11738.796	NaN	NaN	NaN	NaN
11742.757	NaN	NaN	NaN	NaN
11746.801	NaN	NaN	NaN	NaN
11750.774	NaN	NaN	NaN	NaN
11754.805	NaN	NaN	NaN	NaN
11758.800	NaN	NaN	NaN	NaN
11762.802	NaN	NaN	NaN	NaN
11766.806	NaN	NaN	NaN	NaN
11770.800	NaN	NaN	NaN	NaN
11774.767	NaN	NaN	NaN	NaN
11778.796	NaN	NaN	NaN	NaN
11782.803	NaN	NaN	NaN	NaN
11786.802	9.80474	9.39239	NaN	NaN
11790.759	10.37830	9.30540	NaN	NaN
11794.802	0.94877	0.27524	NaN	NaN
11798.799	11.13435	5.57932	NaN	NaN
11802.799	1.64880	1.13370	NaN	NaN
11806.801	-1.82906	-2.69426	NaN	NaN
11810.802	2.31312	3.16158	NaN	NaN
11814.800	1.35273	1.85117	NaN	NaN
11818.779	6.35241	2.42218	NaN	NaN
11822.800	4.47790	2.33478	NaN	NaN
11826.799	2.42446	1.63247	NaN	NaN
11830.800	3.61621	0.52981	NaN	NaN
11834.802	3.01450	2.08900	NaN	NaN
11838.801	4.48951	2.23907	NaN	NaN
11842.801	3.11633	1.94194	NaN	NaN
11846.815	4.85790	2.18825	NaN	NaN
11850.798	5.13545	2.15975	NaN	NaN
11854.802	4.24949	2.34526	NaN	NaN
11858.790	3.89624	2.59474	NaN	NaN
11862.799	4.40796	2.95084	NaN	NaN
11866.799	4.87374	3.00589	NaN	NaN
11870.800	4.14238	2.97228	NaN	NaN
11874.801	4.94093	2.54573	NaN	NaN
11878.774	5.04060	3.19187	NaN	NaN
11882.802	3.87475	3.38344	NaN	NaN
11886.802	4.66164	3.45071	NaN	NaN
11890.803	5.05742	2.81960	NaN	NaN
11894.803	5.61455	3.11988	NaN	NaN
11898.802	5.15108	3.32170	NaN	NaN
11902.802	4.72660	3.54324	NaN	NaN
11906.799	4.99450	3.87911	NaN	NaN
11910.800	4.07930	2.99425	NaN	NaN
11914.801	3.91047	3.51474	NaN	NaN
11918.802	4.48971	2.58773	NaN	NaN
11922.800	4.38931	2.89892	NaN	NaN
11926.801	5.15187	2.50768	NaN	NaN
11930.805	3.76801	4.13937	NaN	NaN
11934.763	3.22564	4.08136	NaN	NaN
11938.810	3.87690	4.30995	NaN	NaN
11942.762	4.57581	4.28633	NaN	NaN
11946.802	5.32904	4.03382	NaN	NaN
11950.795	3.54747	2.68241	NaN	NaN
11954.763	4.08792	2.54980	NaN	NaN
11958.803	3.91818	4.65708	NaN	NaN
11962.803	3.96096	4.68420	NaN	NaN
11966.799	4.13972	4.11247	NaN	NaN
11970.802	5.26659	3.44199	NaN	NaN
11974.801	5.36764	3.09318	NaN	NaN
11978.801	4.06631	4.18823	NaN	NaN
11982.793	4.02838	3.94769	NaN	NaN
11986.798	3.85237	3.64876	NaN	NaN
11990.802	3.88737	3.70571	NaN	NaN
11994.801	4.28930	3.61613	NaN	NaN
11998.804	4.05433	3.54064	NaN	NaN
12002.801	3.96180	3.56161	NaN	NaN
12006.802	3.93305	3.42891	NaN	NaN
12010.802	3.75457	3.72732	NaN	NaN
12014.805	3.79084	3.49171	NaN	NaN
12018.804	3.89515	3.93090	NaN	NaN
12022.764	4.35647	4.33274	NaN	NaN
12026.781	3.79623	5.04434	NaN	NaN
12030.775	4.17067	4.07602	NaN	NaN
12034.762	4.10947	3.66176	NaN	NaN
12038.805	4.12337	3.85868	NaN	NaN
12042.805	4.35758	4.24911	NaN	NaN
12046.808	4.86162	4.47453	NaN	NaN
12050.805	2.50499	5.08540	7.48066	-0.96984
12054.805	4.10019	5.36268	8.00116	-0.14727
12058.802	1.39778	4.57468	7.13803	1.49816
12062.797	2.45522	4.16432	6.13135	0.43891
12066.792	3.11361	4.70116	6.48803	0.06254
12070.811	2.54819	4.76915	6.34091	1.26735
12074.802	4.23290	4.59047	6.87768	1.54922
12078.804	3.73003	5.55510	7.11797	2.71935
12082.806	2.92730	4.80548	6.74259	0.18306
12086.804	3.19575	4.02596	7.12818	-0.32187
12090.805	3.16411	3.79577	6.64023	1.26674
12094.805	3.53889	3.92328	6.90246	1.15058
12098.804	3.65757	3.88853	7.09856	1.59789
12102.803	3.56796	3.92799	6.97881	1.80622
12106.804	3.60020	4.17072	6.31237	1.40262
12110.798	3.72867	4.02134	7.18118	0.92315
12114.803	3.66234	3.79675	6.74303	0.96183
12118.804	3.60207	3.82693	6.46453	1.84683
12122.803	3.38882	3.62769	5.99279	0.06621
12126.805	2.57127	3.70566	6.16228	-0.58254
12130.807	3.84518	7.49201	6.28580	-1.49711
12134.805	3.39409	3.95558	7.29377	1.11312
12138.804	4.47792	3.94169	7.50439	0.70951
12142.806	5.42370	3.73682	7.87423	0.23458
12146.807	5.19431	3.87643	8.08798	-0.92746
12150.792	5.31101	3.80624	8.07460	-1.48418
12154.780	4.35047	4.31065	8.64813	0.21093
12158.806	5.38604	4.04221	7.84516	2.33814
12162.805	5.50102	4.04191	7.65549	2.14286
12166.807	5.24183	3.74862	7.59302	0.17754
12170.804	5.48297	3.73803	8.47099	0.79638
12174.768	5.20888	3.73024	1.49634	-5.76354
12178.805	5.04134	4.81129	0.98549	-6.12176
12182.804	4.75363	4.11534	7.45789	0.21056
12186.807	4.47930	4.78608	NaN	NaN
12190.763	4.40616	4.47484	NaN	NaN
12194.798	4.89774	3.44987	NaN	NaN
12198.806	4.28703	3.41467	6.21330	-9.00184
12202.784	4.03809	3.69132	NaN	NaN
12206.807	4.61726	4.29497	2.00135	-7.55545
12210.806	5.42670	4.07396	NaN	NaN
12214.806	4.34726	4.72226	NaN	NaN
12218.803	4.17722	4.63327	NaN	NaN
12222.806	4.94036	4.44701	NaN	NaN
12226.807	4.04070	5.01178	5.75050	-6.93161
12230.809	4.92356	4.64536	7.85348	-1.60226
12234.784	5.82596	3.12709	7.78367	-1.41833
12238.799	5.30970	3.54232	1.51301	-6.01624
12242.806	4.86349	3.36217	1.79653	-5.53691
12246.808	4.31301	2.71857	1.33423	-5.49168
12250.809	4.37009	2.74580	8.39972	-0.87610
12254.809	3.40892	3.47333	7.87574	0.24211
12258.830	3.47337	3.77496	7.78341	-0.43048
12262.806	3.19066	3.87469	6.74741	-0.72344
12266.806	4.24147	4.88190	4.06451	-5.30033
12270.810	4.45121	4.51704	0.75796	-5.31673
12274.797	4.41092	4.10772	NaN	NaN
12278.804	5.67644	4.36542	NaN	NaN
12282.808	5.87101	3.18485	NaN	NaN
12286.809	4.33915	3.96822	NaN	NaN
12290.808	NaN	NaN	NaN	NaN
12294.810	4.41085	4.28311	NaN	NaN
12298.808	4.70823	3.30061	NaN	NaN
12302.810	NaN	NaN	NaN	NaN
12306.807	4.23742	4.53602	NaN	NaN
12310.807	3.61349	3.18646	NaN	NaN
12314.810	2.76802	5.64980	NaN	NaN
12318.780	4.37900	3.87526	NaN	NaN
12322.829	2.93975	3.92697	NaN	NaN
12326.806	2.71179	4.85470	NaN	NaN
12330.813	2.71973	4.62373	NaN	NaN
12334.766	2.53209	5.07130	NaN	NaN
12338.809	1.80127	4.54036	NaN	NaN
12342.808	3.81723	5.57945	NaN	NaN
12346.809	2.11745	4.55491	NaN	NaN
12350.808	9.42953	9.43147	NaN	NaN
12354.810	12.77174	9.68334	NaN	NaN
12358.787	NaN	NaN	NaN	NaN
12362.809	NaN	NaN	NaN	NaN
12366.808	NaN	NaN	NaN	NaN
12370.807	NaN	NaN	NaN	NaN
12374.809	NaN	NaN	NaN	NaN
12378.809	NaN	NaN	NaN	NaN
12382.807	NaN	NaN	NaN	NaN
12386.808	NaN	NaN	NaN	NaN
12390.809	NaN	NaN	NaN	NaN
12394.809	NaN	NaN	NaN	NaN
12398.767	NaN	NaN	NaN	NaN
12402.804	NaN	NaN	NaN	NaN
12406.807	NaN	NaN	NaN	NaN
12410.811	NaN	NaN	NaN	NaN
12414.768	NaN	NaN	NaN	NaN
12418.808	NaN	NaN	NaN	NaN
12422.812	NaN	NaN	NaN	NaN
12426.813	NaN	NaN	NaN	NaN
12430.776	NaN	NaN	NaN	NaN
12434.769	NaN	NaN	NaN	NaN
12438.810	NaN	NaN	NaN	NaN
12442.788	NaN	NaN	NaN	NaN
12446.809	NaN	NaN	NaN	NaN
12450.788	NaN	NaN	NaN	NaN
12454.813	NaN	NaN	NaN	NaN
12458.810	NaN	NaN	NaN	NaN
12462.809	NaN	NaN	NaN	NaN
12466.812	NaN	NaN	NaN	NaN
12470.811	NaN	NaN	NaN	NaN
12474.813	NaN	NaN	NaN	NaN
12478.810	NaN	NaN	NaN	NaN
12482.802	NaN	NaN	NaN	NaN
12486.805	NaN	NaN	NaN	NaN
12490.813	NaN	NaN	NaN	NaN
12494.812	NaN	NaN	NaN	NaN
12498.810	-8.76430	11.16362	NaN	NaN
12502.769	NaN	NaN	NaN	NaN
12506.812	-2.12984	8.89645	NaN	NaN
12510.812	7.20199	8.10750	NaN	NaN
12514.811	0.54230	4.14667	NaN	NaN
12518.810	-4.50491	3.47980	NaN	NaN
12522.811	-4.82412	0.70365	NaN	NaN
12526.777	-1.46507	0.69956	NaN	NaN
12530.810	0.39713	1.71111	NaN	NaN
12534.770	0.38204	1.39500	NaN	NaN
12538.811	4.53788	2.71411	NaN	NaN
12542.810	3.21733	2.01419	NaN	NaN
12546.811	10.64089	4.64722	NaN	NaN
12550.811	7.60736	4.40948	NaN	NaN
12554.813	-0.00422	0.76228	NaN	NaN
12558.814	0.23708	0.55126	NaN	NaN
12562.814	-1.24942	0.48217	NaN	NaN
12566.796	-2.78659	-1.93233	NaN	NaN
12570.812	-2.09936	-0.11910	NaN	NaN
12574.826	-3.44604	-0.69458	NaN	NaN
12578.810	-1.45257	0.39191	NaN	NaN
12582.809	-0.07584	0.36602	NaN	NaN
12586.813	0.17303	0.86585	NaN	NaN
12590.812	-0.15000	1.29496	NaN	NaN
12594.770	-0.61977	2.46449	NaN	NaN
12598.810	-0.69238	2.35701	NaN	NaN
12602.811	1.22982	1.64587	NaN	NaN
12606.807	1.86972	2.87270	NaN	NaN
12610.806	1.38364	3.32486	NaN	NaN
12614.811	0.91341	3.64339	NaN	NaN
12618.812	0.58955	3.62867	NaN	NaN
12622.811	0.28389	4.08250	NaN	NaN
12626.811	2.59958	3.87352	NaN	NaN
12630.811	3.44357	2.60254	NaN	NaN
12634.772	2.58197	2.56342	NaN	NaN
12638.814	2.81486	2.93723	NaN	NaN
12642.813	2.62724	3.18798	NaN	NaN
12646.812	1.81220	3.17718	NaN	NaN
12650.785	2.59879	2.76031	NaN	NaN
12654.784	1.59782	2.79533	NaN	NaN
12658.814	1.17550	3.21406	NaN	NaN
12662.812	2.71421	3.01521	NaN	NaN
12666.815	2.66776	3.49628	NaN	NaN
12670.813	2.41058	3.33076	NaN	NaN
12674.811	NaN	NaN	NaN	NaN
12678.808	NaN	NaN	NaN	NaN
12682.805	NaN	NaN	NaN	NaN
12686.805	NaN	NaN	NaN	NaN
12690.802	NaN	NaN	NaN	NaN
12694.800	NaN	NaN	NaN	NaN
12698.811	NaN	NaN	NaN	NaN
12702.811	NaN	NaN	NaN	NaN
12706.810	NaN	NaN	NaN	NaN
12710.810	NaN	NaN	NaN	NaN
12714.805	NaN	NaN	NaN	NaN
12718.805	NaN	NaN	NaN	NaN
12722.808	NaN	NaN	NaN	NaN
12726.808	NaN	NaN	NaN	NaN
12730.806	NaN	NaN	NaN	NaN
12734.786	NaN	NaN	NaN	NaN
12738.810	NaN	NaN	NaN	NaN
12742.811	NaN	NaN	NaN	NaN
12746.807	NaN	NaN	NaN	NaN
12750.769	NaN	NaN	NaN	NaN
12754.807	NaN	NaN	NaN	NaN
12758.687	NaN	NaN	NaN	NaN
12762.681	NaN	NaN	NaN	NaN
12766.689	NaN	NaN	NaN	NaN
12770.689	NaN	NaN	NaN	NaN
12774.685	NaN	NaN	NaN	NaN
12778.680	NaN	NaN	NaN	NaN
12782.677	NaN	NaN	NaN	NaN
12786.685	NaN	NaN	NaN	NaN
12790.683	NaN	NaN	NaN	NaN
12794.684	NaN	NaN	NaN	NaN
12798.684	NaN	NaN	NaN	NaN
12802.682	NaN	NaN	NaN	NaN
12806.682	NaN	NaN	NaN	NaN
12810.682	NaN	NaN	NaN	NaN
12814.684	NaN	NaN	NaN	NaN
12818.709	NaN	NaN	NaN	NaN
12822.659	NaN	NaN	NaN	NaN
12826.682	NaN	NaN	NaN	NaN
12830.686	NaN	NaN	NaN	NaN
12834.690	NaN	NaN	NaN	NaN
12838.685	NaN	NaN	NaN	NaN
12842.683	NaN	NaN	NaN	NaN
12846.682	NaN	NaN	NaN	NaN
12850.681	NaN	NaN	NaN	NaN
12854.682	NaN	NaN	NaN	NaN
12858.682	NaN	NaN	NaN	NaN
12862.668	NaN	NaN	NaN	NaN
12866.686	NaN	NaN	NaN	NaN
12870.684	NaN	NaN	NaN	NaN
12874.683	NaN	NaN	NaN	NaN
12878.684	NaN	NaN	NaN	NaN
12882.686	NaN	NaN	NaN	NaN
12886.686	NaN	NaN	NaN	NaN
12890.687	NaN	NaN	NaN	NaN
12894.689	NaN	NaN	NaN	NaN
12898.686	NaN	NaN	NaN	NaN
12902.686	NaN	NaN	NaN	NaN
12906.686	NaN	NaN	NaN	NaN
12910.679	NaN	NaN	NaN	NaN
12914.686	NaN	NaN	NaN	NaN
12918.687	NaN	NaN	NaN	NaN
12922.687	NaN	NaN	NaN	NaN
12926.688	NaN	NaN	NaN	NaN
12930.686	NaN	NaN	NaN	NaN
12934.691	NaN	NaN	NaN	NaN
12938.686	NaN	NaN	NaN	NaN
12942.686	NaN	NaN	NaN	NaN
12946.668	NaN	NaN	NaN	NaN
12950.684	NaN	NaN	NaN	NaN
12954.688	NaN	NaN	NaN	NaN
12958.684	NaN	NaN	NaN	NaN
12962.684	NaN	NaN	NaN	NaN
12966.685	NaN	NaN	NaN	NaN
12970.684	NaN	NaN	NaN	NaN
12974.690	NaN	NaN	NaN	NaN
12978.686	NaN	NaN	NaN	NaN
12982.686	NaN	NaN	NaN	NaN
12986.686	NaN	NaN	NaN	NaN
12990.680	NaN	NaN	NaN	NaN
12994.687	NaN	NaN	NaN	NaN
12998.685	NaN	NaN	NaN	NaN
13002.649	NaN	NaN	NaN	NaN
13006.685	NaN	NaN	NaN	NaN
13010.689	NaN	NaN	NaN	NaN
13014.649	NaN	NaN	NaN	NaN
13018.688	NaN	NaN	NaN	NaN
13022.686	NaN	NaN	NaN	NaN
13026.688	NaN	NaN	NaN	NaN
13030.660	NaN	NaN	NaN	NaN
13034.694	NaN	NaN	NaN	NaN
13038.687	NaN	NaN	NaN	NaN
13042.689	NaN	NaN	NaN	NaN
13046.688	NaN	NaN	NaN	NaN
13050.685	NaN	NaN	NaN	NaN
13054.687	NaN	NaN	NaN	NaN
13058.689	NaN	NaN	NaN	NaN
13062.685	NaN	NaN	NaN	NaN
13066.686	NaN	NaN	NaN	NaN
13070.691	NaN	NaN	NaN	NaN
13074.685	NaN	NaN	NaN	NaN
13202.595	NaN	NaN	NaN	NaN
13252.495	NaN	NaN	NaN	NaN
13302.511	NaN	NaN	NaN	NaN
13352.488	NaN	NaN	NaN	NaN
13402.489	NaN	NaN	NaN	NaN
13452.621	NaN	NaN	NaN	NaN
13502.604	NaN	NaN	NaN	NaN
13552.613	NaN	NaN	NaN	NaN
13602.606	NaN	NaN	NaN	NaN
13652.629	NaN	NaN	NaN	NaN
13702.717	NaN	NaN	NaN	NaN
13752.703	NaN	NaN	NaN	NaN
13802.738	NaN	NaN	NaN	NaN
13852.742	NaN	NaN	NaN	NaN
13921.413	-0.57667	-0.23563	0.72858	0.38224
13925.182	-0.41767	1.56531	1.56377	0.38265
13929.215	-1.66938	0.12693	0.60605	-1.52802
13933.218	-0.60709	2.73215	0.49776	-3.20099
13937.211	-0.68935	2.15357	0.72097	0.30520
13941.174	-1.11338	0.91559	1.08783	-0.76502
13945.215	-0.81086	2.05148	0.57826	-0.91850
13949.215	-0.72615	1.26211	0.75124	0.26176
13953.213	-0.80650	0.40035	0.58248	0.17716
13957.213	-3.11195	2.60966	0.60816	-0.65570
13961.216	-1.19507	2.09300	1.40628	-2.05268
13965.119	-0.64796	1.42901	0.57697	-0.22159
13969.210	-0.91115	1.69135	1.60933	1.89621
13973.214	-2.03893	2.71715	0.55952	-0.12076
13977.214	-0.76213	1.52969	0.52118	-1.27917
13981.218	-0.75990	-0.45377	0.41135	-1.40351
13985.213	-2.86514	-0.75435	3.76144	-0.57854
13989.213	-4.87177	1.43324	3.00905	0.63561
13993.173	-8.18383	0.54870	-5.06648	0.02775
13997.112	4.50029	4.68782	-3.34385	1.53260
14001.215	-1.87374	8.91661	-3.10228	1.94715
14005.216	NaN	NaN	NaN	NaN
14009.171	NaN	NaN	NaN	NaN
14013.216	NaN	NaN	NaN	NaN
14017.218	NaN	NaN	NaN	NaN
14021.215	NaN	NaN	NaN	NaN
14025.213	NaN	NaN	NaN	NaN
14029.214	NaN	NaN	NaN	NaN
14033.216	NaN	NaN	NaN	NaN
14037.213	NaN	NaN	NaN	NaN
14041.215	NaN	NaN	NaN	NaN
14045.213	NaN	NaN	NaN	NaN
14049.194	NaN	NaN	NaN	NaN
14053.216	NaN	NaN	NaN	NaN
14057.211	NaN	NaN	NaN	NaN
14061.172	NaN	NaN	NaN	NaN
14065.215	NaN	NaN	NaN	NaN
14069.173	NaN	NaN	NaN	NaN
14073.216	NaN	NaN	NaN	NaN
14077.173	NaN	NaN	NaN	NaN
14081.218	NaN	NaN	NaN	NaN
14085.215	NaN	NaN	NaN	NaN
14089.214	NaN	NaN	NaN	NaN
14093.176	NaN	NaN	NaN	NaN
14097.215	NaN	NaN	NaN	NaN
14101.218	NaN	NaN	NaN	NaN
14105.215	NaN	NaN	NaN	NaN
14109.220	NaN	NaN	NaN	NaN
14113.216	NaN	NaN	NaN	NaN
14117.213	NaN	NaN	NaN	NaN
14121.172	NaN	NaN	NaN	NaN
14125.219	NaN	NaN	-3.19595	5.74905
14129.213	NaN	NaN	1.76834	3.47490
14133.215	NaN	NaN	NaN	NaN
14137.216	NaN	NaN	2.32340	11.31239
14141.222	7.72269	12.69035	NaN	NaN
14145.217	5.93480	14.96570	NaN	NaN
14149.216	5.89539	11.75923	NaN	NaN
14153.215	8.87876	11.97350	2.82610	8.98677
14157.112	8.67951	10.56074	NaN	NaN
14161.214	8.44055	6.03389	4.98270	4.42426
14165.217	7.35615	8.05968	NaN	NaN
14169.217	9.33335	8.79438	-2.25997	2.55335
14173.118	9.48994	9.57790	2.70681	3.60460
14177.214	9.42658	8.90105	-0.07800	5.03308
14181.216	9.68886	6.15975	0.31540	2.60692
14185.216	8.05477	7.38508	-3.79606	2.36020
14189.112	7.76925	7.71727	1.16600	3.40080
14193.216	8.66365	5.28007	3.68908	1.89873
14197.174	7.38702	4.93769	6.80127	1.31979
14201.218	5.24892	5.10983	2.76532	2.15469
14205.118	5.20526	5.14428	5.69703	1.34415
14209.217	3.39216	5.08572	3.17012	1.33336
14213.223	5.12661	5.69171	3.12593	0.79074
14217.214	3.27645	5.00693	3.08382	2.24890
14221.223	3.88900	3.69576	2.29567	1.64744
14225.092	4.09658	4.01297	3.16844	1.25482
14229.090	3.62368	3.98333	3.01188	1.80691
14233.091	3.82106	5.32402	7.69700	1.70398
14237.084	4.06604	4.95079	5.35738	2.38967
14241.091	3.62887	4.94906	5.05233	2.34000
14245.095	4.87429	4.52688	2.95344	2.73707
14249.091	4.11594	3.95340	5.68585	4.10330
14253.084	3.59194	3.65356	6.07162	2.62784
14257.093	3.84821	1.76877	6.89908	2.40404
14261.076	3.83841	4.93856	5.85942	2.53544
14265.049	3.49233	3.98190	5.67209	2.30321
14269.087	3.45230	4.27926	3.97659	1.91434
14273.091	3.74305	3.94991	1.69859	1.21260
14277.088	3.94680	2.95364	2.43461	1.98911
14281.093	3.63159	2.08217	4.37537	1.95326
14285.111	3.77244	1.78171	2.86537	2.18016
14289.094	3.33136	3.12587	3.31267	2.32922
14293.094	3.28929	3.08262	5.23913	2.28444
14297.095	2.83187	4.53498	5.03295	2.71472
14301.095	2.87841	4.58308	5.07486	2.55000
14305.059	2.76596	4.22625	4.13145	1.41239
14309.097	2.81746	4.10522	2.44900	2.80147
14313.051	2.77686	4.08662	4.90013	3.06917
14317.094	2.52183	3.77141	5.18911	2.21055
14321.094	3.02999	3.22015	4.87599	1.79619
14325.092	2.83799	2.95831	3.73717	1.59880
14329.093	2.89836	2.81480	4.82096	1.31667
14333.093	2.96765	2.54968	4.81579	2.76746
14337.092	2.90547	4.23719	4.96265	3.10273
14341.094	3.03677	4.00264	5.01536	3.16531
14345.096	2.93646	3.83344	5.07126	3.26088
14349.069	2.92787	3.69096	5.19455	2.89023
14353.094	2.75670	3.70728	5.02708	2.23360
14357.096	2.46352	3.69301	4.98046	2.55914
14361.093	2.78429	3.76844	4.94002	2.82655
14365.096	2.71917	3.93837	4.98031	2.72260
14369.094	2.60084	3.87996	5.03371	2.38541
14373.096	2.72714	3.86946	5.11955	2.68650
14377.095	2.70629	3.87405	5.29068	2.91630
14381.124	2.67598	3.91266	5.41959	2.88748
14385.090	2.82038	4.16303	5.23620	3.22175
14389.088	2.65964	4.64038	2.23769	1.52774
14393.093	2.58115	2.83370	2.08952	1.12624
14397.088	2.69123	3.13741	3.85350	0.88001
14401.095	2.92891	2.98040	3.79497	1.21922
14405.094	3.01249	4.00560	4.38911	2.62297
14409.093	3.43662	3.92620	4.65580	2.34466
14413.117	2.88576	3.94100	4.91622	0.35933
14417.097	2.77574	4.57537	5.17747	1.60514
14421.097	3.18769	4.39149	3.11715	1.82000
14425.096	2.83546	4.56831	4.39987	-0.06288
14429.095	2.66038	4.31333	5.08234	0.42747
14433.095	2.74209	4.64670	4.63844	0.18182
14437.093	2.47843	4.84563	4.40468	0.39115
14441.094	3.21834	4.48827	4.61674	0.76357
14445.117	3.31786	4.25109	5.87742	1.14501
14449.096	5.79040	2.04125	5.15495	-2.05818
14453.096	6.19854	2.79690	8.19924	1.10539
14457.096	8.15202	4.05544	10.84188	2.50622
14461.088	9.12019	2.44632	11.24220	2.21218
14465.098	8.79131	1.86341	10.95992	0.26384
14469.085	10.40029	3.37159	11.26557	0.07421
14473.084	10.85971	1.80375	13.65488	2.19951
14477.089	10.82552	2.03454	15.53142	0.27392
14481.097	9.39784	2.30054	13.36770	-0.54907
14485.095	10.47089	1.98922	13.51363	-2.03031
14489.099	9.45493	2.38015	12.41009	2.41269
14493.121	10.62442	0.75771	13.55700	1.71853
14497.095	9.25209	1.21679	13.64373	2.16610
14501.097	9.56093	2.15321	14.04024	-1.17675
14505.096	10.11495	2.29975	15.71188	-0.83551
14509.092	9.47806	2.50594	15.31738	-0.56264
14513.062	10.10995	1.83234	12.98237	-0.17923
14517.097	10.23964	1.86582	14.69042	-1.25214
14521.098	10.45053	2.22702	14.54765	-1.33369
14525.092	10.45197	2.00308	14.24228	-2.22870
14529.094	10.05163	0.75980	14.54212	-1.26304
14533.093	9.98494	1.03421	12.52376	-0.99188
14537.103	9.81944	2.22697	14.36481	-0.39560
14541.101	9.98497	1.78442	14.61534	-0.77957
14545.098	10.24355	1.68792	13.12745	-0.78666
14549.098	10.32424	1.90669	13.06482	2.35836
14553.076	10.19099	1.91843	14.33197	1.30454
14557.098	9.98988	2.49519	15.53363	0.14997
14561.099	10.36009	2.38468	13.47106	-0.66822
14565.096	10.34775	2.25447	14.72397	-2.42098
14569.055	9.24484	1.64372	13.35837	-3.07208
14573.090	9.99604	2.24405	13.66196	-0.72328
14577.097	10.29315	0.89795	15.16151	-1.36025
14581.095	10.43325	1.06761	12.96871	0.28433
14585.097	10.22329	1.20522	14.95081	-0.65140
14589.099	10.26523	1.49037	11.44709	0.73343
14593.093	10.56965	1.54628	13.42171	0.75724
14597.091	9.84204	1.71788	14.21330	-0.81686
14601.098	10.25550	1.96081	13.70720	0.77316
14605.058	10.02117	1.49290	15.29822	0.56197
14609.099	10.63964	1.94700	13.67696	0.87681
14613.098	9.93549	2.04233	15.46546	0.31177
14617.098	10.19887	2.02452	13.68469	1.13046
14621.059	9.47577	2.61334	15.57003	0.36813
14625.098	9.89390	2.41864	13.82766	1.44157
14629.057	9.80281	2.70495	14.40428	1.34549
14633.102	10.03017	2.56991	13.59759	0.70170
14637.099	9.82356	2.58335	13.70329	1.17074
14641.097	9.90491	2.71347	13.60189	0.94081
14645.101	9.73250	2.75994	13.87709	1.05007
14649.098	9.68662	2.77731	13.50131	2.25505
14653.091	9.60731	2.91949	14.23011	0.66674
14657.098	9.69472	2.93755	13.25131	2.05143
14661.099	9.66009	2.94095	14.29396	0.98361
14665.099	9.86965	2.81749	13.38766	1.05106
14669.099	9.75572	2.77786	14.13034	0.57374
14673.055	9.89730	2.58786	13.17649	0.79637
14677.086	9.99260	2.76382	14.07197	0.33156
14681.089	9.86791	2.15057	13.05154	-0.22135
14685.091	10.01318	2.31660	13.76977	-1.72229
14689.098	9.95403	2.44258	14.57164	-0.38455
14693.101	9.97975	2.27967	13.64035	-0.15621
14697.099	10.01780	2.11706	15.49801	-1.77713
14701.092	9.68664	2.18489	13.33095	-0.86440
14705.098	9.98865	1.93719	15.44921	-1.80844
14709.099	9.91216	2.04573	14.45937	-0.73166
14713.099	9.89879	2.13199	13.36605	-0.43830
14717.107	9.98360	2.04941	15.33100	-0.72157
14721.066	9.84647	2.20457	13.16308	0.04094
14725.104	9.91115	2.32218	13.35933	0.76425
14729.099	9.84597	2.24789	15.75520	0.56138
14733.092	9.42141	2.67537	13.26131	-0.01923
14737.102	9.80831	2.35574	15.56524	-2.29441
14741.056	9.81978	1.92505	15.39273	-1.30540
14745.109	9.76594	2.40630	13.88878	-0.71976
14749.114	9.74952	2.60277	14.96893	-1.08988
14753.101	9.53817	2.91045	13.40983	0.53089
14757.057	9.73853	2.70846	14.53991	1.23540
14761.078	9.94469	2.05714	15.08671	1.27836
14765.067	9.45575	0.89720	13.49577	-0.45682
14769.102	9.87379	1.27550	15.63099	-1.17899
14773.101	10.06427	1.60455	13.96306	-0.96369
14777.096	10.96645	1.26811	15.27245	-2.13100
14781.093	11.28519	1.14474	16.33496	-2.10531
14785.097	11.28362	1.03629	17.23602	-2.29181
14789.103	12.45156	1.01268	16.17322	-0.90079
14793.102	12.37487	1.15712	17.79041	-0.37897
14797.105	11.39365	1.53722	15.44974	-0.16615
14801.097	12.13534	1.56829	16.59212	-0.32087
14805.100	11.92771	1.56462	19.21493	-1.74726
14809.103	12.01174	1.21284	15.88321	-2.14922
14813.101	12.42392	1.09599	16.75696	-2.56036
14817.104	12.67974	1.19732	16.69796	-0.14628
14821.058	12.56826	1.34099	17.66121	-0.28094
14825.100	12.18123	1.82131	17.41332	-0.31779
14829.101	12.33231	1.60115	16.23228	-0.84141
14833.101	12.49767	1.46918	18.93827	-2.74779
14837.105	12.39397	0.79967	19.36713	-3.12918
14841.102	12.29825	0.14172	16.31914	-0.37641
14845.072	12.48026	0.35779	16.43254	-0.39779
14849.104	12.38599	1.01657	16.43300	-0.07081
14853.107	12.42894	0.62363	17.24777	-0.35609
14857.102	12.38647	1.36172	18.56415	-1.68550
14861.101	11.95192	1.78257	16.26250	-0.98945
14865.104	12.28908	1.75357	16.28418	-0.38034
14869.101	12.40221	1.64724	16.64662	-0.86504
14873.105	12.47113	1.80958	19.33887	-1.42941
14877.098	12.19885	2.04441	16.74237	-0.93212
14881.101	12.27782	2.03519	14.90280	-0.75090
14885.089	12.27330	1.99591	16.11620	-0.67217
14889.093	12.28194	1.92142	17.26855	-0.85141
14893.001	12.39108	1.99492	17.81493	-1.74412
14897.103	12.13968	2.21111	18.50365	-1.53458
14901.104	12.36255	2.40053	16.56877	-0.94827
14905.103	12.29370	2.29635	16.74064	-1.89839
14908.999	12.47049	2.19169	16.22652	-0.96802
14913.101	12.33380	2.29772	16.54939	-2.04427
14917.103	12.16996	2.22571	17.78035	-2.30622
14921.060	12.31938	2.08508	18.30318	-1.99135
14924.999	11.96094	2.17877	19.06983	-2.45491
14929.068	11.89578	2.29962	17.76127	-2.27750
14933.105	12.20041	2.14925	18.19435	-2.50012
14937.104	12.39210	2.19797	18.26693	-2.88973
14941.096	12.38538	2.15116	16.60607	-2.50170
14945.103	12.31151	2.08257	16.66273	-2.65776
14949.104	12.45459	1.98319	16.67717	-2.54406
14953.101	12.24720	1.89208	16.68557	-2.06596
14957.108	12.32954	1.91326	17.07243	0.37704
14961.105	12.15516	1.60854	16.71214	0.33181
14965.101	12.27619	1.48721	16.40633	-0.13049
14969.082	10.81410	1.56284	16.48750	0.26741
14972.999	10.26182	1.28482	12.45232	2.25137
14977.105	7.48056	3.60647	12.53724	0.49177
14981.102	7.09475	3.20718	11.89739	0.95604
14985.106	5.54818	3.07328	9.60198	0.22749
14988.974	4.19176	3.05014	9.27126	-0.29557
14993.102	3.72509	3.39512	7.44642	0.50266
14997.105	3.70561	3.21537	6.67943	0.62619
15001.101	3.69378	1.46462	5.62557	0.77658
15005.000	3.77555	3.48920	5.72505	-0.76918
15009.097	3.66375	3.51260	5.58658	-1.16591
15013.092	3.35983	3.52177	6.85199	-0.43490
15017.100	3.15795	3.51429	7.18667	1.18411
15021.109	2.95708	3.39006	7.19740	1.44226
15025.103	3.21738	3.18161	7.14194	0.66673
15029.106	2.86554	2.16023	7.29299	0.88689
15033.104	3.44359	1.65250	6.81128	1.44908
15037.003	3.37643	1.56026	6.05854	1.40366
15041.106	3.24137	2.03783	5.85878	1.33243
15045.104	3.17901	1.72590	5.71106	0.00551
15049.108	3.00101	2.24343	6.32689	0.96893
15053.008	2.66508	2.46492	6.38447	0.73760
15057.106	3.34373	1.78016	7.32238	0.67782
15061.107	3.36921	1.46412	6.54893	0.76293
15065.062	3.21770	1.83712	6.55160	1.07859
15069.003	3.33468	1.71928	6.67444	0.34447
15073.105	3.11311	1.98349	6.21612	-1.69924
15077.102	3.48335	2.37526	6.02835	-0.21334
15081.103	3.34786	2.70203	6.12749	0.23412
15085.111	3.00235	3.85925	6.96939	-0.29492
15089.105	3.28936	2.60022	7.40286	1.09284
15093.105	3.42475	1.71942	6.60820	-0.12994
15097.096	3.30609	1.86340	7.01497	-1.23496
15101.002	3.23108	2.18239	6.55192	-0.53455
15105.107	3.47079	2.40810	6.46529	-0.13839
15109.103	3.48538	2.73055	6.33652	-0.20005
15113.105	3.15607	3.00655	7.22644	-0.11404
15117.004	3.38506	3.56107	7.28464	1.00714
15121.062	3.19049	3.40828	6.82161	2.14426
15125.062	3.09965	3.76789	7.46975	2.27700
15129.063	3.34944	3.60597	7.13390	2.87120
15133.004	3.33869	3.24871	9.21408	2.88317
15137.108	3.30611	3.41175	9.20499	2.72911
15141.106	3.66787	3.58202	9.01186	3.27662
15145.107	3.50479	3.44483	8.29358	3.41318
15149.004	3.14486	3.34946	8.60594	2.81005
15153.106	3.08691	3.53087	7.14142	2.98464
15157.107	1.35092	3.56713	7.92938	4.23765
15161.106	9.68556	7.67261	10.92832	-0.07229
15165.111	10.20315	9.95945	8.58240	4.82493
15169.107	NaN	NaN	NaN	NaN
15173.106	NaN	NaN	NaN	NaN
15177.088	NaN	NaN	NaN	NaN
15181.107	NaN	NaN	NaN	NaN
15185.109	NaN	NaN	NaN	NaN
15189.105	NaN	NaN	NaN	NaN
15193.107	NaN	NaN	NaN	NaN
15197.104	NaN	NaN	NaN	NaN
15201.106	NaN	NaN	NaN	NaN
15205.108	NaN	NaN	NaN	NaN
15209.105	NaN	NaN	NaN	NaN
15213.106	NaN	NaN	NaN	NaN
15217.107	NaN	NaN	NaN	NaN
15221.100	NaN	NaN	NaN	NaN
15225.104	NaN	NaN	NaN	NaN
15229.107	NaN	NaN	NaN	NaN
15233.109	NaN	NaN	NaN	NaN
15237.110	NaN	NaN	NaN	NaN
15241.064	NaN	NaN	NaN	NaN
15245.110	NaN	NaN	NaN	NaN
15248.984	NaN	NaN	NaN	NaN
15253.099	NaN	NaN	NaN	NaN
15257.065	NaN	NaN	NaN	NaN
15261.083	NaN	NaN	NaN	NaN
15264.942	NaN	NaN	NaN	NaN
15268.979	NaN	NaN	NaN	NaN
15272.986	NaN	NaN	NaN	NaN
15277.004	NaN	NaN	4.68434	12.90714
15280.984	NaN	NaN	NaN	NaN
15284.955	NaN	NaN	NaN	NaN
15288.982	NaN	NaN	10.29913	8.04397
15292.983	NaN	NaN	8.42403	10.83606
15296.983	3.40843	-3.45341	10.74717	4.59954
15300.983	-1.10100	6.46025	8.55001	3.28765
15304.987	-3.68364	7.03218	10.74108	3.87303
15309.113	-1.04788	0.45585	11.25404	4.25745
15312.986	12.42314	7.07239	9.90400	4.76408
15316.984	10.84595	6.86706	13.05743	4.81676
15320.983	17.52947	-0.79049	11.42647	3.85022
15324.987	-0.66747	6.45869	9.50004	1.27883
15328.986	-1.44912	2.01806	9.35046	0.35498
15332.984	0.49659	-4.42836	9.82180	1.58960
15336.985	-0.76858	-4.97175	8.22980	3.06344
15340.985	1.25404	-3.49185	9.50846	3.35949
15344.981	1.37627	2.12999	8.12456	1.43618
15348.966	0.37273	1.93477	7.94331	2.47902
15352.985	-0.45028	2.15912	5.98862	2.29720
15357.004	-0.73754	1.89574	5.81078	2.12307
15360.984	1.75719	2.17524	7.75726	3.36696
15364.985	3.12739	2.38966	7.73234	3.06967
15368.986	2.04936	3.01124	8.04755	3.37120
15372.978	3.11361	3.58372	7.85957	3.07760
15376.983	3.67588	4.30128	7.90399	3.14417
15380.984	3.13328	4.39366	7.97739	2.73080
15384.987	3.27210	3.96184	7.95796	1.96086
15389.007	2.88351	3.50994	5.99905	0.66362
15392.975	2.82063	3.70663	5.51327	1.93509
15396.985	3.54803	3.53965	8.05195	1.54376
15400.987	3.66293	3.38310	7.75534	0.92966
15404.986	3.75583	2.85567	6.27422	0.79676
15408.984	3.67714	3.19787	5.66152	1.51834
15412.988	3.14580	2.95216	5.71033	1.11015
15416.986	3.18794	3.12251	7.62967	0.69377
15420.945	3.45363	3.37561	7.58164	1.74916
15424.985	3.15978	3.39333	6.63325	2.47075
15428.987	3.05548	3.26568	6.13576	1.82035
15432.958	3.07758	3.36416	5.95182	1.40974
15436.979	3.09594	3.22965	7.46153	0.56207
15440.942	3.30992	3.30580	6.50232	1.08316
15444.981	3.18601	3.48137	6.12605	-0.26002
15448.985	3.16216	3.32955	5.01423	-1.19466
15452.981	2.97688	3.41337	5.19574	-1.22605
15456.986	2.90069	3.39114	6.68482	-1.49679
15460.988	2.93658	3.32433	6.68675	-0.41494
15464.988	2.83244	3.30812	6.14808	-0.36488
15468.980	3.26060	2.36357	4.84809	-1.32666
15472.970	2.86131	2.00050	6.89534	0.17533
15476.982	3.08327	2.80666	6.20935	-1.93855
15480.985	2.97869	3.00264	6.52365	-2.16043
15484.986	2.85596	3.79677	6.66136	-1.40301
15488.943	3.34947	3.64081	5.86529	3.02668
15492.986	2.91492	3.37260	5.12107	2.49572
15496.988	2.93287	2.54785	7.22446	0.06686
15501.007	3.04350	2.33768	7.68725	-0.30767
15504.944	3.10626	2.73963	6.89739	-0.44976
15508.944	3.02950	3.40378	6.57825	-1.14447
15512.989	3.20840	3.57163	6.55008	-1.26675
15516.981	3.32706	3.15423	6.06063	1.90523
15520.990	3.09324	2.94545	6.33204	2.60121
15524.988	3.21733	1.77052	5.94995	1.83661
15528.992	3.34222	2.03906	5.49682	1.03640
15532.986	3.38214	3.37107	7.47470	-1.00015
15536.985	3.10698	4.01149	7.19400	-0.42408
15540.988	2.91376	3.96658	7.21918	-0.55732
15544.987	2.93933	3.66063	7.04562	-1.15238
15548.988	2.96188	3.64597	6.62513	-0.74981
15552.987	3.13813	3.55663	7.08568	-0.09274
15556.944	3.49320	3.28221	6.60059	-0.58379
15560.987	3.61896	3.28898	6.53331	-0.47402
15564.988	3.63834	3.51952	6.58876	-0.38819
15568.988	3.59767	3.43055	6.16670	0.39133
15572.988	3.02475	3.77295	6.27513	-0.53571
15576.960	3.69197	3.35299	5.24722	-0.39685
15580.988	3.42685	3.56309	5.32257	-0.44218
15584.988	3.41758	3.41049	5.82073	-0.22513
15588.987	3.28620	3.48733	5.30786	-0.43863
15592.987	3.08171	3.51403	6.37106	-0.37381
15596.989	3.54900	3.43095	7.91680	-0.51493
15600.978	3.63542	3.49022	7.44015	-0.48995
15604.987	3.35422	3.55359	7.31706	-0.26074
15608.986	3.33641	3.59065	7.43247	-0.31648
15612.981	3.20070	3.67456	7.04472	-0.24314
15616.989	3.13202	3.76528	6.91390	-0.28640
15620.946	3.17626	3.67260	7.08331	0.77658
15624.991	3.02210	3.81535	6.78130	1.58052
15628.952	2.93342	3.95399	6.70536	1.87236
15632.991	3.21965	3.85045	6.74971	0.77155
15636.989	3.15411	3.77088	6.69197	1.02517
15640.959	3.37868	3.75873	6.85591	1.18818
15644.958	3.36829	3.94845	6.64567	1.27763
15648.988	3.15830	3.98878	6.64606	1.13854
15652.989	3.33473	3.73768	6.56880	1.05032
15656.988	3.41844	3.88514	6.47887	1.11409
15660.987	3.62005	3.76986	6.46630	2.24889
15664.989	3.37309	4.17017	6.26064	1.14916
15668.992	3.54455	4.08881	6.33336	1.56978
15672.985	3.62348	4.28375	6.28793	1.33127
15676.986	3.53105	4.44399	6.02342	1.21211
15680.973	3.54957	4.79574	6.17901	1.80130
15684.989	3.44983	4.69323	6.32022	1.25767
15688.945	3.51757	4.93412	6.68288	2.78759
15692.981	3.53028	4.72180	7.42449	2.32179
15696.989	3.60141	4.71814	8.10795	2.45375
15700.989	3.52099	4.82426	7.02247	2.26104
15704.989	3.56611	4.69499	7.62848	2.46805
15708.982	3.67190	4.67681	7.64576	1.70084
15712.989	4.20054	4.53161	8.13843	1.34539
15716.992	4.91947	4.38496	8.04195	1.30307
15720.949	3.43439	4.57263	8.48440	0.53176
15724.991	6.59909	4.54525	8.34667	-0.29004
15728.990	12.49651	4.56726	8.70992	0.66358
15732.992	14.82003	8.11827	11.24920	3.27737
15736.990	14.87717	9.60029	14.04183	6.15539
15740.989	NaN	NaN	NaN	NaN
15744.991	NaN	NaN	NaN	NaN
15748.992	NaN	NaN	NaN	NaN
15752.960	NaN	NaN	NaN	NaN
15756.988	NaN	NaN	NaN	NaN
15760.992	NaN	NaN	NaN	NaN
15764.956	NaN	NaN	NaN	NaN
15768.990	NaN	NaN	NaN	NaN
15772.947	NaN	NaN	NaN	NaN
15776.989	NaN	NaN	NaN	NaN
15780.988	NaN	NaN	NaN	NaN
15784.991	NaN	NaN	NaN	NaN
15788.946	NaN	NaN	NaN	NaN
15792.992	NaN	NaN	NaN	NaN
15796.983	NaN	NaN	NaN	NaN
15800.993	NaN	NaN	NaN	NaN
15804.949	NaN	NaN	NaN	NaN
15808.981	NaN	NaN	NaN	NaN
15812.986	NaN	NaN	NaN	NaN
15816.990	NaN	NaN	16.04952	6.24517
15820.949	14.76333	13.20220	15.04441	14.49724
15824.991	15.72970	13.07938	15.07098	11.70646
15828.952	10.97418	13.16739	14.47557	11.99918
15832.992	15.67704	12.38823	13.04405	10.55793
15836.993	14.90753	6.77730	10.65014	5.77887
15840.990	17.24281	5.02197	9.53610	1.90533
15844.992	18.29488	5.04217	14.01048	1.73678
15848.964	16.65883	6.09430	14.25583	2.12482
15853.006	16.72831	5.08289	16.24624	5.36308
15856.990	16.89525	5.32447	16.51883	1.62990
15860.991	16.64758	4.73103	11.88035	4.52622
15864.990	16.50781	4.24979	14.40637	2.20398
15868.992	11.37860	3.43896	11.01189	2.39213
15872.994	11.65585	3.11369	13.28956	1.00889
15876.995	9.26706	2.57044	14.01106	2.02147
15880.994	8.73623	2.95904	14.14214	-8.34495
15884.995	8.73882	2.52831	13.66107	2.20724
15888.979	9.69193	2.41544	11.31839	1.49901
15892.970	9.18216	2.32468	12.16655	0.98835
15896.991	9.73012	2.60422	13.06982	0.52023
15900.991	10.99604	2.28170	12.23184	0.26861
15904.994	10.39909	2.40507	11.91598	1.89837
15908.994	11.21154	2.12730	11.55623	0.78689
15912.991	10.31758	2.03795	11.04850	0.54951
15916.990	7.50488	2.40049	11.27448	-0.13147
15920.950	7.50856	2.28511	11.66087	-0.96297
15924.987	8.24764	2.27098	11.72876	-0.60935
15928.988	8.09980	2.42829	9.87452	0.24295
15932.959	9.28934	1.86363	10.34444	-0.33421
15936.994	9.36020	1.70428	8.32036	0.18628
15940.954	8.98135	1.91859	8.22873	0.26406
15944.994	9.06869	1.91099	11.13236	-0.39680
15948.993	8.50054	1.92411	11.20495	0.12119
15952.997	8.69915	2.39412	11.59985	0.24397
15956.890	8.68557	2.22133	12.01972	0.08339
15960.996	8.75798	2.58467	13.03635	0.20439
15964.992	9.13221	2.96381	12.05174	0.56905
15968.996	8.61285	3.83116	12.94820	0.29201
15972.998	8.73371	3.21069	11.62421	0.60788
15976.993	8.68371	2.12342	11.51378	0.95537
15980.996	8.95852	2.41179	11.28758	0.96122
15984.994	8.75184	2.26579	11.26514	0.67413
15989.001	8.82465	2.57208	11.34335	0.56047
15992.992	8.71477	2.77249	11.49760	0.59720
15996.996	8.72028	2.69491	12.08499	0.44456
16000.992	8.99634	2.38297	12.44784	0.62793
16004.995	9.09072	2.34544	12.30685	0.78074
16008.994	9.16634	2.15692	12.74718	-0.01292
16012.982	8.76816	2.17290	7.89513	-0.22795
16016.997	8.53316	2.19111	8.39003	-0.30360
16020.995	8.76990	2.14459	8.52103	0.26165
16024.994	8.59092	1.89967	8.58481	0.45887
16028.993	8.67689	2.01689	8.59298	0.12140
16032.995	8.79327	1.91116	8.66603	0.03550
16036.892	8.72784	1.75721	8.63951	0.52897
16040.995	8.73708	1.77677	8.61674	0.09415
16044.993	8.82049	1.63158	8.36812	0.38528
16048.994	8.70961	1.66151	8.39367	0.50883
16052.896	8.68070	1.72626	8.54731	0.48017
16056.967	8.89109	1.59773	8.26813	0.64194
16060.963	8.81605	1.37603	8.60111	0.79458
16064.954	9.02176	1.26060	8.26565	0.49060
16068.897	8.84465	1.42711	8.41021	0.62020
16072.993	9.01050	1.18236	8.27725	1.01761
16076.993	9.29785	1.36967	8.37157	1.10975
16080.994	9.38559	1.34355	13.88616	1.26917
16085.002	9.04773	1.16806	16.05408	0.94000
16088.995	9.12432	1.07324	14.09838	0.92861
16092.994	9.01680	0.61679	11.76592	2.52655
16096.980	9.26805	0.97057	11.03152	2.70912
16100.889	11.03224	0.75909	11.87926	1.61808
16104.994	11.26584	1.04557	12.77983	2.29456
16108.952	10.38826	1.08450	13.01755	2.92336
16112.998	9.95509	1.68582	12.21812	2.63209
16117.000	9.89687	2.10066	12.03204	2.81121
16120.953	10.57013	1.85562	13.25456	2.95229
16124.994	11.23471	2.51584	13.34042	3.52273
16128.953	12.31568	5.18344	15.56742	4.24716
16132.890	13.81642	7.69842	15.13554	4.80358
16136.996	14.95582	12.46796	14.51156	9.36695
16140.995	NaN	NaN	NaN	NaN
16144.995	NaN	NaN	NaN	NaN
16149.000	NaN	NaN	NaN	NaN
16153.004	NaN	NaN	NaN	NaN
16156.953	NaN	NaN	NaN	NaN
16160.991	NaN	NaN	NaN	NaN
16164.992	NaN	NaN	NaN	NaN
16168.992	NaN	NaN	NaN	NaN
16172.992	NaN	NaN	NaN	NaN
16176.996	NaN	NaN	NaN	NaN
16180.994	NaN	NaN	NaN	NaN
16184.994	NaN	NaN	NaN	NaN
16188.997	NaN	NaN	NaN	NaN
16192.998	NaN	NaN	NaN	NaN
16196.996	NaN	NaN	NaN	NaN
16200.997	NaN	NaN	NaN	NaN
16205.001	NaN	NaN	NaN	NaN
16208.954	NaN	NaN	NaN	NaN
16212.996	NaN	NaN	NaN	NaN
16216.998	NaN	NaN	NaN	NaN
16220.954	NaN	NaN	NaN	NaN
16224.954	NaN	NaN	NaN	NaN
16229.002	NaN	NaN	NaN	NaN
16232.996	NaN	NaN	NaN	NaN
16236.954	NaN	NaN	NaN	NaN
16241.002	NaN	NaN	NaN	NaN
16245.001	NaN	NaN	NaN	NaN
16249.003	NaN	NaN	-2.64317	8.07393
16252.997	NaN	NaN	6.50241	11.36212
16256.999	7.31267	14.77317	7.07359	12.42292
16261.000	7.07422	11.44253	7.16554	10.32172
16264.897	7.12476	7.95730	7.04853	9.69271
16268.998	-4.87547	2.74718	3.42656	2.54973
16272.999	-4.10801	4.94192	7.14963	8.17250
16277.001	11.11693	7.54468	7.13207	6.99453
16280.896	-4.35694	2.92181	7.04301	6.25917
16285.001	-4.43850	4.95384	8.49602	5.73204
16288.875	11.04350	6.61362	7.20790	0.42047
16292.874	9.01564	6.00916	5.83562	2.74088
16296.877	13.42934	5.81158	5.79234	0.57287
16300.874	8.70221	6.33846	6.12158	2.49888
16304.878	3.10005	5.92809	5.39391	2.77944
16308.870	4.62251	5.83777	3.27244	3.93436
16312.836	-2.48891	2.38916	6.22532	3.67822
16316.831	0.56220	3.57475	5.81339	2.91192
16320.876	0.98449	3.56452	4.71691	0.89310
16324.875	2.66370	4.12006	5.38228	1.23941
16328.874	4.89900	0.53870	4.33868	1.85901
16332.876	2.87376	3.87212	3.58039	1.54785
16336.874	2.99896	3.95620	4.11876	1.26113
16340.876	3.03234	4.15931	5.99031	1.70416
16344.868	4.24238	4.02764	5.53429	1.39886
16348.876	3.40007	3.82266	4.44844	1.35354
16352.845	2.85168	3.78480	3.30344	0.93860
16356.876	3.31002	3.36096	4.21054	-0.02595
16360.898	2.56642	3.19254	5.92326	0.02830
16364.876	3.24165	2.83546	3.90051	-0.04356
16368.874	2.39624	5.36295	3.95928	-0.40290
16372.831	1.97203	4.05958	3.44490	-0.63851
16376.871	2.52253	4.06068	3.75348	-0.03578
16380.832	5.60013	1.43360	5.58203	2.47281
16384.875	2.70829	3.71452	3.49322	2.05685
16388.874	2.32374	3.02923	4.53778	2.36444
16392.836	2.16022	2.84281	4.07108	2.37073
16396.875	1.99310	2.17388	3.61263	1.82537
16400.875	2.03035	1.89867	3.32743	1.96042
16404.876	2.78513	1.06859	3.31056	0.16356
16408.874	2.36549	1.97488	4.61886	0.18237
16412.877	2.02450	2.82571	4.31055	0.20846
16416.876	2.33504	2.93286	5.14990	0.36051
16420.834	1.94087	3.79547	4.39131	0.82415
16424.876	1.86092	4.93875	3.37897	0.33078
16428.876	2.12451	4.53882	3.37947	0.30796
16432.876	2.02939	4.35552	3.13246	0.43698
16436.846	1.96635	4.49766	2.70404	0.05275
16440.835	2.10924	4.42948	3.86356	0.24421
16444.878	1.96216	4.64909	4.34916	0.12096
16448.833	2.28499	2.98447	4.56042	0.45639
16452.875	1.89880	3.31140	4.35743	0.86357
16456.898	1.80310	2.74939	4.24502	1.04198
16460.875	1.81590	2.27620	3.76638	0.73227
16464.875	1.82527	2.62884	3.43932	0.64040
16468.875	2.46015	2.76380	4.36098	1.30338
16472.869	2.15036	2.63848	4.26077	0.52655
16476.857	2.55081	2.75083	4.58545	1.61297
16480.872	2.02775	2.60984	4.47319	1.50754
16484.874	1.84741	2.58886	4.38082	1.83786
16488.869	1.87976	4.32101	3.57409	1.64761
16492.876	1.54802	4.63449	2.83945	1.48549
16496.878	1.49386	4.83383	3.89688	0.83520
16500.876	2.28133	4.48228	4.26195	-0.09518
16504.880	1.92086	4.37138	4.27012	0.60154
16508.877	1.60876	3.58527	4.04221	0.82563
16512.879	1.83484	3.42513	4.43663	0.25089
16516.873	2.45099	3.70222	4.69048	-0.15781
16520.839	2.28660	3.13825	4.09848	-0.63664
16524.878	2.30776	3.19612	4.08426	-0.50547
16528.887	2.64019	3.70467	4.56466	-0.73888
16532.833	3.15087	3.72336	5.72578	-0.09509
16536.877	3.58465	3.86307	6.47571	0.11447
16540.878	4.35940	3.75212	6.31779	0.11183
16544.876	4.29478	3.61344	6.30065	0.17472
16548.876	4.09572	3.41889	6.45983	0.11867
16552.870	3.94345	3.46848	6.40226	-0.13048
16556.880	3.36409	3.42658	6.18186	0.00403
16560.852	3.83052	3.30141	4.81707	0.22191
16564.879	3.92154	3.69040	4.60140	0.20568
16568.900	3.96750	3.49414	4.62843	-0.09873
16572.879	4.27605	3.35887	4.44363	0.16302
16576.876	4.09727	3.40491	6.56510	0.16974
16580.879	4.04636	3.32995	6.68531	-0.02152
16584.872	3.63265	3.41504	6.82481	-0.11451
16588.879	3.98620	3.29101	6.95176	-0.21847
16592.877	4.22636	3.25609	6.92980	0.04825
16596.877	4.09364	3.34559	6.97920	0.02082
16600.839	4.09550	3.33333	6.88399	0.04566
16604.870	4.15924	3.37313	6.78752	-0.20796
16608.879	4.12777	3.18203	6.77705	-0.36601
16612.880	4.22720	3.11475	6.45799	-0.43530
16616.903	4.21980	3.02688	6.48793	-0.50579
16620.836	4.20316	2.88342	6.41062	-0.47211
16624.883	4.12073	2.72735	6.49320	-0.72154
16628.836	4.06779	2.47986	6.29590	-0.75571
16632.875	4.09863	2.34799	5.97484	-0.74731
16636.881	3.99252	2.17866	6.01314	-1.21125
16640.880	3.95305	2.20795	5.75148	-1.15653
16644.843	3.89545	2.24629	5.50100	-1.13025
16648.879	3.82025	2.08331	5.72566	-1.40829
16652.878	3.75375	2.12715	5.61310	-1.36336
16656.881	3.84174	1.87965	5.45167	-1.57123
16660.878	3.74775	1.98029	5.44276	-1.84754
16664.870	3.74767	1.88783	5.33743	-1.91368
16668.880	3.62808	1.83143	5.37893	-1.91649
16672.837	3.66001	1.57621	5.16093	-2.10186
16676.879	3.73045	1.70235	5.00837	-2.21243
16680.901	3.82158	1.76581	5.13552	-1.58257
16684.861	3.88152	1.34324	7.42322	-1.84073
16688.835	3.85059	1.48574	8.85419	-1.10428
16692.878	3.85600	2.09877	7.38329	0.91440
16696.879	3.94821	2.32659	5.97317	1.09854
16700.879	3.93888	3.85351	7.76357	1.35218
16704.881	3.89533	3.18615	7.18020	2.39178
16708.880	4.04974	3.44210	6.82532	2.42394
16712.903	4.24991	3.38908	6.57392	2.07263
16716.880	4.11752	4.36029	7.18631	1.85668
16720.838	4.05935	4.14048	6.75385	1.83470
16724.878	4.08177	4.17560	6.86129	2.25970
16728.873	4.02925	4.43854	6.78845	2.01834
16732.881	4.23695	3.97169	6.70629	1.82320
16736.881	4.05382	4.20871	6.32760	1.76568
16740.881	2.65964	2.35021	6.54452	2.31465
16744.881	2.94814	2.82758	7.06584	1.92535
16748.878	2.40129	2.71893	8.98264	1.19288
16752.880	3.84006	2.06897	9.42028	1.29238
16756.882	3.76823	2.09978	6.47299	-1.06857
16760.882	3.58700	2.25825	6.07287	-1.45309
16764.846	3.66585	2.37595	5.95844	-1.13469
16768.857	3.33715	2.55717	5.69276	-0.82732
16772.882	3.59140	2.87336	5.56423	-0.20547
16776.883	3.58596	2.81099	5.42316	-0.48287
16780.880	3.57221	2.62168	5.50589	0.94863
16784.881	3.51481	3.01134	5.44744	0.88326
16788.884	3.48640	3.41821	5.43147	1.16112
16792.881	3.59965	3.81017	5.53753	1.22749
16796.880	3.45269	3.28450	5.39601	1.42319
16800.882	3.41075	3.72242	5.44419	1.41808
16804.882	3.46825	3.88691	5.39372	1.45385
16808.874	3.57456	3.95568	5.59201	1.86435
16812.882	3.60104	4.14432	5.71873	1.74098
16816.885	3.55006	4.28241	5.89004	1.84700
16820.881	3.63745	4.43766	6.00641	2.14806
16824.860	3.81580	4.25570	6.12386	2.28346
16828.884	3.07976	4.45067	6.30315	1.98638
16832.882	3.44668	4.44357	6.18919	2.25873
16836.883	3.19326	4.42851	6.16201	3.31167
16840.875	3.11304	4.52342	6.42658	2.48830
16844.885	3.05219	4.45115	6.60904	2.47279
16848.884	3.20152	4.48238	6.56868	2.41129
16852.849	3.33245	4.31388	6.51902	1.93181
16856.883	3.39453	4.32692	6.68283	2.14931
16860.884	3.52937	3.93949	6.64273	0.76720
16864.886	4.06977	3.70240	6.95396	1.40018
16868.885	4.59830	3.80814	7.01460	-0.05996
16872.879	3.26708	3.78391	6.61389	1.09235
16876.911	3.53765	3.66776	5.13449	1.03016
16880.880	3.44758	3.57403	5.37018	0.79883
16884.887	3.62652	3.14255	5.18764	1.23183
16888.880	3.82598	3.26258	5.90632	0.79046
16892.865	4.08579	2.81103	5.24267	1.07300
16896.884	3.70626	3.01528	5.72406	1.15847
16900.882	4.08325	2.65235	5.34929	1.13630
16904.789	3.61520	2.61648	6.35069	0.96091
16908.883	3.52277	2.28902	6.20452	0.92628
16912.884	3.54974	2.41379	5.57023	0.83345
16916.841	3.54131	1.87045	6.22652	1.10602
16920.882	3.37836	2.00477	7.25528	0.88095
16924.884	3.32911	1.93128	5.88626	0.79276
16928.883	3.57948	1.92567	6.39837	0.77081
16932.881	3.46874	2.15816	6.78304	0.42196
16936.885	3.44213	2.10056	6.74638	0.43633
16940.887	3.73621	2.04055	6.78899	0.32388
16944.886	4.82993	2.24682	6.94005	0.03564
16948.885	3.85160	1.83044	7.11029	0.41030
16952.899	3.81469	2.19338	7.32238	0.03699
16956.882	3.95580	1.91951	7.60110	-0.11921
16960.885	3.77009	2.08776	7.23936	-0.74129
16964.887	3.93544	2.17871	7.87808	0.10176
16968.780	4.01191	2.29456	7.23208	0.39819
16972.885	4.03905	2.54833	7.45750	1.11251
16976.856	4.17277	2.43619	5.96480	2.04234
16980.883	4.43628	2.37708	7.12642	1.76098
16984.888	4.34936	2.38067	7.51808	1.40545
16988.885	4.17218	2.41135	6.31612	1.38960
16992.883	4.15507	2.57855	8.24193	1.49636
16996.884	4.23895	2.65944	8.06324	2.26492
17000.779	4.08352	2.79922	7.18403	1.77544
17004.886	4.08797	2.99538	6.70107	3.02146
17008.841	1.69475	4.68064	3.74612	1.70782
17012.889	1.26497	3.63899	4.81591	0.44305
17016.876	-1.54088	4.45646	0.73776	1.69515
17020.874	-1.47531	4.39335	0.21462	1.54583
17024.884	-3.26515	4.74630	-3.05467	1.60903
17028.887	-5.05102	4.93058	-3.35456	2.24751
17032.891	-3.89352	3.41269	-4.62619	2.96752
17036.887	-7.56639	4.86573	-6.17371	0.59394
17040.887	-6.02769	3.21316	-8.51911	-0.34852
17044.887	-8.88377	5.02106	-8.81222	0.56315
17048.890	-4.69061	2.77854	-8.95377	0.15518
17052.885	-5.27506	2.56959	-9.46493	0.32557
17056.885	-5.22571	2.44445	-9.11467	0.49349
17060.851	-12.45057	4.80400	-9.46923	0.37371
17064.784	-12.50806	4.38578	-9.26657	0.56974
17068.884	-12.46829	3.69760	-9.60895	0.78402
17072.885	-12.38069	4.64421	-9.95505	0.71060
17076.884	-9.19553	4.88219	-9.29430	0.95564
17080.777	-9.70938	5.11792	-9.46744	2.14721
17084.886	-10.00507	4.63884	-9.35452	1.29277
17088.884	-10.54046	4.24863	-9.32506	1.27279
17092.889	-11.74684	3.83271	-9.65397	1.31975
17096.889	-12.22867	2.72102	-9.81019	2.04573
17100.840	-8.34373	3.87554	-9.52504	2.15245
17104.886	-9.12309	3.74512	-9.36986	2.20584
17108.886	-9.75181	3.22182	-9.38380	1.99864
17112.781	-10.86158	2.88321	-9.56245	2.62317
17116.888	-11.50720	2.15656	-9.43182	2.74813
17120.886	-9.22915	3.19974	-9.47908	3.29006
17124.882	-10.40747	3.10153	-9.36711	3.33585
17128.783	-9.91399	2.06200	-9.28731	2.84461
17132.862	-10.49301	3.41356	-9.29812	3.14007
17136.886	-11.13845	4.02757	-9.27871	3.60493
17140.884	-10.37304	4.25182	-9.17447	3.68034
17144.785	-10.05738	4.14369	-9.37540	3.89380
17148.889	-10.28376	3.29294	-9.13565	4.08247
17152.889	-11.17226	2.24752	-8.95523	4.18631
17156.887	-9.44223	3.78341	-9.18185	4.06688
17160.892	-10.29339	3.47656	-9.08803	4.05945
17164.890	-10.52326	1.94037	-9.01048	4.11370
17168.888	-9.33724	2.06437	-9.00721	3.80454
17172.893	-10.22115	2.75393	-8.89160	4.03998
17176.889	-10.32147	2.71538	-8.89102	4.10882
17180.889	-10.50712	3.90592	-8.89955	4.05475
17184.866	-10.45089	2.84927	-8.74527	3.72659
17188.887	-9.77958	3.35855	-8.75868	3.71396
17192.893	-10.15011	3.03432	-8.84906	3.69587
17196.887	-10.62365	2.46730	-8.83561	3.46150
17200.886	-10.53878	2.58999	-8.77725	3.38523
17204.888	-10.06301	3.12577	-8.61016	3.06396
17208.786	-7.98452	3.16075	-7.21594	3.37172
17212.886	-4.44499	3.75379	-6.21414	3.30411
17216.887	-5.42038	3.77583	-3.06489	3.29039
17220.889	-2.11155	3.93657	-2.74311	3.06325
17224.789	-1.99037	4.21533	-1.17642	2.93230
17228.878	-1.61391	4.64784	-0.18531	3.08297
17232.887	-0.98132	4.42210	0.06502	3.34113
17236.890	-1.12308	4.07895	0.09210	2.98283
17240.891	-0.31491	4.25942	0.93185	2.40615
17244.889	-0.39616	4.24006	0.34327	2.76880
17248.889	-0.58592	4.26769	0.38253	3.26168
17252.891	-0.96053	4.28779	0.84389	3.33170
17256.787	-0.65032	3.99877	1.12812	3.19274
17260.896	-0.44301	3.97848	1.68754	3.78826
17264.888	-0.39988	4.26822	0.93306	4.08268
17268.854	-0.31650	4.18471	0.51495	3.53787
17272.772	-0.45656	4.15965	0.51336	4.20136
17276.889	-0.69690	4.16523	0.53275	1.91061
17280.886	-0.87741	4.07661	1.70313	-0.13999
17284.886	-0.64523	4.46593	2.04051	1.79938
17288.892	-0.51729	4.35419	1.83913	2.04795
17292.888	-0.99841	4.63636	1.59311	3.22340
17296.887	-0.74248	4.96853	0.94849	3.98211
17300.890	-0.39301	2.47038	2.19750	4.29004
17304.787	-0.63670	2.85417	1.91472	4.27803
17308.868	-0.62208	2.42069	0.02132	3.61549
17312.753	-0.84555	2.63943	2.31564	3.23712
17316.753	-0.66330	2.82421	2.35781	2.01868
17320.850	-0.46440	3.14341	2.09933	2.46784
17324.768	-0.56898	4.20246	1.45103	3.58556
17328.767	-0.47133	4.87926	1.51660	3.15267
17332.762	-0.31205	4.86379	1.33445	3.96727
17336.760	-0.49686	5.01198	1.36099	4.09492
17340.768	-0.48453	5.01939	1.31766	4.10535
17344.766	-0.80923	5.06498	1.80781	4.30289
17348.761	-1.05850	4.85509	2.05236	2.37907
17352.757	-0.49408	4.34654	2.15492	2.14809
17356.740	-0.28791	4.19322	1.17746	1.19986
17360.769	-0.36829	4.57004	0.83183	2.10026
17364.765	-0.62072	4.50216	0.54004	3.69843
17368.757	-0.82565	4.31468	1.16240	4.88329
17372.767	-0.45559	4.37488	1.27006	4.67362
17376.765	-0.19115	3.69531	1.87265	3.78598
17380.767	-0.09659	3.02788	1.11851	3.09791
17384.786	-0.62749	3.33184	1.94149	2.31973
17388.764	-0.86466	4.45699	1.74457	2.31587
17392.767	-0.77265	4.44734	1.90001	2.08992
17396.747	-0.79826	4.48887	1.00995	2.14856
17400.766	-0.56600	4.33347	1.38364	2.58077
17404.765	-0.77806	4.34144	1.53550	2.94648
17408.764	-0.33707	4.37040	1.30355	3.22233
17412.764	-0.41991	4.62830	1.57168	3.24862
17416.767	-0.33424	4.95926	1.47092	3.50971
17420.767	-0.60689	4.30463	1.46906	4.55430
17424.766	-0.43837	2.89045	1.10832	0.64884
17428.764	-0.38226	3.66882	0.83992	2.05281
17432.766	-0.47614	4.63999	1.16424	2.70475
17436.765	-0.53959	4.49007	1.06753	3.49456
17440.732	-0.51808	4.77790	1.08433	4.60212
17444.767	-0.35578	3.62441	1.17170	0.75775
17448.759	-0.31483	4.37431	0.94671	2.58149
17452.765	-0.39182	4.80320	1.24910	2.71701
17456.769	-0.45264	4.04509	0.80282	4.13327
17460.770	-0.27009	3.14685	1.09867	1.43107
17464.767	-0.68297	3.81682	2.39433	1.29808
17468.767	-0.67963	4.47287	1.13127	1.55120
17472.770	-0.74779	4.56068	1.70343	2.09032
17476.767	-0.64069	4.77422	1.63938	2.35728
17480.767	-0.53880	5.24440	1.22246	4.28866
17484.766	-0.25309	4.83458	1.33554	4.24642
17488.765	-0.16645	5.18208	0.49989	4.83728
17492.768	-1.35003	4.68761	0.75163	1.32525
17496.767	-1.17790	4.61711	0.81461	1.33467
17500.765	-0.55657	4.71968	1.22027	0.72467
17504.767	-0.87178	5.29623	1.42732	1.39410
17508.769	-0.98755	4.90616	1.74003	1.48998
17512.768	-0.96509	4.37657	2.45096	1.36527
17516.766	-0.86605	4.72800	3.17064	2.92438
17520.756	-0.40412	4.58538	3.61933	2.62402
17524.755	-0.52441	4.62566	1.02183	3.07051
17528.791	-0.24872	4.35803	3.17797	1.19175
17532.766	-0.20065	4.66602	1.85574	2.66696
17536.768	-0.53811	5.43988	1.99235	2.19630
17540.767	-0.23485	6.35686	3.31939	3.00977
17544.788	-5.01805	6.13030	6.74961	4.91745
17548.768	-0.42946	4.60771	3.60403	5.02815
17552.768	6.75137	9.90020	3.45937	5.08389
17556.767	NaN	NaN	2.27315	4.41864
17560.772	NaN	NaN	1.27452	12.53306
17564.738	NaN	NaN	NaN	NaN
17568.768	NaN	NaN	NaN	NaN
17572.768	NaN	NaN	NaN	NaN
17576.768	NaN	NaN	NaN	NaN
17580.767	NaN	NaN	NaN	NaN
17584.766	NaN	NaN	NaN	NaN
17588.768	NaN	NaN	NaN	NaN
17592.766	NaN	NaN	NaN	NaN
17596.765	NaN	NaN	NaN	NaN
17600.766	NaN	NaN	NaN	NaN
17604.754	NaN	NaN	NaN	NaN
17608.768	NaN	NaN	NaN	NaN
17612.768	NaN	NaN	NaN	NaN
17616.769	NaN	NaN	NaN	NaN
17620.782	NaN	NaN	NaN	NaN
17624.724	NaN	NaN	NaN	NaN
17628.768	NaN	NaN	NaN	NaN
17632.769	NaN	NaN	NaN	NaN
17636.768	NaN	NaN	NaN	NaN
17640.761	NaN	NaN	NaN	NaN
17644.769	NaN	NaN	NaN	NaN
17648.735	NaN	NaN	NaN	NaN
17652.769	NaN	NaN	NaN	NaN
17656.763	NaN	NaN	NaN	NaN
17660.772	NaN	NaN	NaN	NaN
17664.738	NaN	NaN	4.05162	12.41951
17668.771	NaN	NaN	5.99006	8.77711
17672.791	NaN	NaN	6.78992	9.37119
17676.769	3.39312	7.04694	11.89250	11.71111
17680.770	12.17326	11.09131	0.09351	6.79170
17684.771	8.75514	8.70487	2.96379	5.47250
17688.769	0.84888	5.16057	8.32177	7.63013
17692.726	6.65862	8.18087	3.37465	6.37776
17696.728	9.10182	11.02950	7.03010	6.07614
17700.772	11.11344	10.30922	5.64238	5.85893
17704.770	11.20345	8.91020	-0.20010	2.80867
17708.770	12.05732	8.60950	7.95117	6.62098
17712.773	9.25920	8.90703	6.85605	6.52836
17716.770	9.04730	8.44865	5.92906	5.93152
17720.772	9.06637	7.62266	6.95357	5.27143
17724.770	7.37199	6.90211	6.36792	2.70975
17728.761	5.63680	6.43010	6.41364	3.49012
17732.760	4.85297	5.23860	5.32570	2.21984
17736.771	4.72425	4.43835	6.72073	0.58091
17740.772	4.76431	2.77073	6.56564	2.11474
17744.769	4.89915	4.47243	6.55582	4.19640
17748.768	4.54582	6.76483	6.82657	4.38543
17752.771	4.29865	6.55715	6.12641	3.38360
17756.771	4.80342	6.13862	6.95411	2.90104
17760.771	3.38686	5.51191	6.56843	2.39012
17764.733	4.01929	5.23332	5.53050	1.92379
17768.798	4.36829	4.96004	6.84380	1.87621
17772.737	3.28043	4.80479	6.93176	2.18722
17776.772	3.62667	4.83481	7.09040	2.35005
17780.769	3.66140	4.73662	4.93866	2.27429
17784.764	3.32362	4.72577	4.95874	0.64611
17788.771	3.67212	4.71348	6.84184	2.07427
17792.771	3.64909	4.85811	7.19097	2.14077
17796.771	3.65275	4.86560	6.95286	1.96546
17800.736	3.54929	4.88949	6.58753	0.96204
17804.772	3.57253	4.93560	6.55782	1.58832
17808.773	3.42584	4.95420	4.73259	2.05110
17812.756	3.48526	4.61773	5.99539	2.31373
17816.771	3.61523	3.63455	6.33027	2.43611
17820.775	3.99526	3.89278	6.52838	2.74272
17824.730	3.63273	3.35020	6.63526	1.97260
17828.774	3.68248	3.27579	7.09702	2.11779
17832.765	3.66076	3.35664	7.47407	2.13943
17836.773	3.95189	3.29668	4.96125	2.73594
17840.774	4.02416	3.47928	5.40179	3.33291
17844.772	3.69135	3.42349	5.91447	3.58054
17848.781	3.91464	3.81517	6.48044	3.44588
17852.771	3.82002	4.17353	6.37940	3.85388
17856.737	3.39218	4.59740	7.57703	2.77609
17860.773	3.70952	4.78047	6.57715	2.94506
17864.775	4.21841	4.31955	5.85175	3.12091
17868.772	3.98447	4.21562	6.63781	4.05518
17872.772	3.55142	4.53275	5.30434	4.01372
17876.774	3.93295	4.58232	5.61020	4.10191
17880.733	3.66815	4.86438	6.09174	4.30420
17884.775	4.00129	4.69860	6.22542	3.79710
17888.776	3.43098	4.81122	6.00668	2.96123
17892.776	3.30235	5.11643	6.40474	2.83631
17896.773	3.63023	4.74488	6.14901	2.99418
17900.775	4.20202	4.72374	6.32385	2.46812
17904.772	4.44087	4.56981	5.70124	3.05349
17908.773	4.15959	4.46371	4.66825	2.57047
17912.773	3.62946	4.37533	5.23061	2.34028
17916.776	3.52249	4.49587	6.02828	2.69545
17920.774	3.79396	4.28325	6.33054	2.70246
17924.777	4.02821	4.18162	6.16231	2.54271
17928.775	4.29895	4.10372	5.86767	2.48426
17932.775	4.36385	3.97640	6.35282	2.75919
17936.761	3.93458	4.20761	6.15701	2.32606
17940.732	3.52890	4.14889	6.29484	2.23105
17944.774	3.72647	4.20678	6.32956	2.86518
17948.776	3.41773	4.10281	6.77998	2.74946
17952.775	3.36708	4.25901	6.45172	2.83260
17956.773	3.52217	4.23706	6.78781	3.27224
17960.776	3.62709	4.30543	7.20519	3.02464
17964.777	3.36846	4.43168	6.63749	3.32511
17968.776	3.34168	4.52985	6.68815	3.23591
17972.777	3.29963	4.61396	7.15628	3.41356
17976.767	3.02413	4.71097	6.83690	3.35010
17980.744	3.08750	4.76387	6.86782	3.63800
17984.776	3.13071	4.74315	6.85955	3.55825
17988.774	3.10809	4.81897	6.90114	3.47020
17992.780	3.28011	4.86933	6.53208	3.34606
17996.777	3.31224	4.92429	7.19185	-2.16999
18000.776	3.39920	5.03269	7.31853	-1.53749
18004.776	3.47997	4.98988	7.93338	-1.82345
18008.736	3.22967	4.86642	6.77200	-0.91895
18012.776	3.48637	2.50199	7.12828	-0.71051
18016.767	3.56109	2.67136	7.47239	-0.43747
18020.733	3.62786	3.09925	7.22256	-0.03483
18024.782	3.68480	2.78641	7.30229	0.33092
18028.775	3.73932	2.74498	7.24283	0.25430
18032.775	3.83018	3.58894	6.65730	0.20777
18036.775	3.87672	3.17675	7.02157	0.42064
18040.780	3.93581	3.22983	6.33429	0.35623
18044.775	3.90694	3.32619	6.40702	0.93922
18048.780	3.87008	3.12685	6.79980	2.06977
18052.778	3.92252	3.19081	7.09123	2.42478
18056.672	3.93507	3.28230	6.70200	0.86492
18060.778	3.98546	3.37548	6.74849	1.81276
18064.735	3.97311	3.42360	6.80499	2.40111
18068.774	3.96906	3.40485	7.25313	2.50952
18072.682	3.97891	3.52763	6.82532	3.16945
18076.774	3.98842	3.66838	6.88216	3.03956
18080.733	4.00299	3.68348	7.24131	2.95247
18084.774	4.06838	3.86243	6.75130	3.74033
18088.673	4.07095	3.98860	7.25436	1.34915
18092.775	4.04962	4.14351	6.91792	1.10636
18096.775	4.09518	4.20948	7.48646	2.65464
18100.777	4.02287	4.30296	7.40716	0.52150
18104.678	4.05831	4.38523	7.29511	1.02084
18108.777	4.06303	4.46501	7.27458	0.96786
18112.775	3.90474	4.47225	7.56927	0.75372
18116.780	3.95891	4.51929	7.47436	1.25203
18120.781	3.92561	4.53650	7.69980	0.80214
18124.776	4.00771	4.55758	7.51154	1.53051
18128.735	3.90508	4.45665	7.59802	1.54323
18132.761	4.01789	4.37722	2.12345	1.06254
18136.674	4.29905	4.34024	3.35996	1.10509
18140.777	4.08014	4.22873	3.34111	0.86671
18144.768	4.42451	4.03705	3.63364	1.10179
18148.767	4.24396	3.98275	3.49278	2.04213
18152.781	4.39121	3.90336	3.70356	1.30461
18156.776	4.42173	3.94836	3.45732	1.76199
18160.775	4.57660	3.88487	3.53985	1.66841
18164.782	4.55850	3.86731	2.83110	1.92180
18168.780	4.78252	3.85738	3.07879	1.32370
18172.777	4.71782	3.90557	4.40811	0.67020
18176.777	4.79669	3.94852	4.17541	0.89998
18180.778	4.63279	4.30781	5.09231	1.66622
18184.784	4.64394	4.29641	4.35050	1.89068
18188.776	4.75026	3.22626	5.41465	1.87017
18192.777	4.63351	2.76493	5.61635	3.59427
18196.736	4.61119	2.68853	5.34102	3.43659
18200.647	4.54557	3.60047	5.42193	3.80666
18204.781	3.28115	4.23886	5.16536	4.24574
18208.781	3.31640	4.35605	5.66224	1.68351
18212.777	2.34941	4.89953	5.06018	4.06133
18216.782	3.43432	5.29409	5.19059	3.69648
18220.778	3.18247	5.45116	5.01489	4.00683
18224.781	2.63613	5.75093	4.47866	3.81336
18228.781	2.71446	5.45875	4.14880	4.03759
18232.682	2.69770	5.49537	4.23456	4.03673
18236.783	2.95760	5.85304	4.62880	3.93690
18240.780	2.56134	5.92658	4.49432	3.34967
18244.778	2.30194	5.72914	4.44395	3.41678
18248.679	2.15767	5.43818	4.23071	2.93112
18252.780	2.16203	5.31522	4.21308	3.76320
18256.736	2.24329	4.76496	3.92482	3.69051
18260.778	2.32659	4.32679	3.92704	4.08504
18264.677	2.08909	4.58278	3.88433	3.93404
18268.777	2.06580	4.19137	3.38889	4.78375
18272.780	1.99213	3.90722	3.33965	5.60109
18276.780	2.13105	3.91741	3.79729	4.92821
18280.786	2.11906	3.71138	3.77750	4.15302
18284.779	1.98814	3.87690	3.73779	4.27284
18288.777	2.23105	4.12408	3.04031	4.20696
18292.778	2.25298	4.04203	3.29820	4.06895
18296.784	2.07137	3.92322	2.96242	4.32515
18300.780	2.42857	4.19750	2.66214	4.18313
18304.779	2.17192	4.53997	3.11383	4.38718
18308.781	2.22661	4.24316	2.91876	4.56233
18312.682	2.17514	4.58195	2.83251	4.42301
18316.780	2.15333	3.85573	2.93349	4.81087
18320.781	2.06604	4.11121	2.85804	4.97114
18324.737	1.26974	4.23588	2.95792	5.23443
18328.673	1.94310	4.28702	2.58950	5.25336
18332.780	1.52729	4.44029	2.36980	5.68383
18336.781	1.57513	4.44891	2.43976	3.44958
18340.780	1.53223	4.57260	2.56372	4.05353
18344.787	1.31699	4.55088	2.47261	2.29258
18348.656	1.04744	4.56922	2.94837	1.37349
18352.654	1.11787	4.91715	2.21326	2.01256
18356.657	1.08559	4.66035	2.63774	1.70044
18360.616	1.12167	4.83020	2.98299	1.77114
18364.655	1.04493	4.85033	2.65557	2.46174
18368.656	1.19567	4.60326	2.23670	2.33793
18372.655	1.15077	4.72892	2.37820	1.98875
18376.648	1.16436	4.80919	2.74157	2.08102
18380.657	1.16066	4.80581	2.23893	2.03581
18384.657	1.14593	5.19933	2.79614	1.92579
18388.654	1.18693	5.48674	2.88866	1.71674
18392.656	1.26468	5.66992	3.18994	1.50281
18396.654	1.33408	5.54777	3.20501	1.28201
18400.639	1.35737	5.31341	3.06088	1.41519
18404.653	1.43446	5.72664	2.85757	1.12276
18408.676	1.61657	5.76553	2.32773	2.14167
18412.655	1.69336	5.83412	2.94374	1.39661
18416.658	1.64905	6.04069	3.53347	1.35118
18420.658	1.64603	6.16118	3.64899	2.01833
18424.678	1.83028	6.25692	3.62766	1.85400
18428.659	1.91229	6.40033	4.53788	2.84020
18432.656	2.12178	6.17949	5.48944	3.11667
18436.656	2.05323	6.51017	3.83255	4.06923
18440.656	2.22728	6.37167	4.01675	4.46625
18444.650	2.18399	6.45749	3.91064	3.98758
18448.660	2.17777	6.58367	4.01262	3.99424
18452.657	2.16191	6.59214	4.60202	3.79804
18456.680	2.15001	6.67013	4.03409	3.63265
18460.657	2.12392	6.75038	4.11085	3.78057
18464.667	2.33789	6.55605	3.97568	3.51123
18468.655	2.46040	6.73405	4.10411	3.63802
18472.658	2.06126	6.72156	4.07505	3.57119
18476.655	2.37922	6.63411	4.02883	3.41930
18480.613	2.34366	6.77184	4.08881	3.35979
18484.631	2.41512	6.74865	3.95323	3.38668
18488.656	2.33286	6.65623	3.93421	3.60477
18492.656	2.58093	6.65782	4.00578	3.77062
18496.656	2.27602	6.54920	4.24144	3.42577
18500.656	2.32984	6.55917	4.06340	3.51818
18504.657	2.42255	6.50171	3.94631	3.52162
18508.657	2.30343	6.57571	3.98788	3.78936
18512.658	2.27605	6.47098	4.35467	3.99943
18516.661	2.33259	6.38771	4.43798	4.02805
18520.651	2.21098	6.37785	4.63713	4.13468
18524.645	2.22884	6.50524	4.64049	4.15228
18528.647	2.28958	6.41564	4.07639	3.76588
18532.658	2.23115	6.42803	4.50979	3.62463
18536.650	2.20607	6.46073	4.30956	3.72740
18540.658	2.28494	6.48497	4.25916	3.75279
18544.659	2.50893	6.68872	4.36839	3.46156
18548.615	2.47358	6.78581	4.71854	4.28928
18552.651	2.46766	6.77387	4.50727	3.92494
18556.658	2.35291	6.84134	4.65173	3.23683
18560.662	2.31002	6.92448	4.58824	3.37164
18564.662	2.28581	6.85999	4.43145	3.48610
18568.647	2.17606	6.89107	4.91893	4.43807
18572.615	2.23712	6.82162	3.23272	5.57224
18576.659	2.44824	6.57549	4.37251	5.80119
18580.655	2.45844	6.33019	4.54077	3.66435
18584.679	2.62781	4.69400	4.95051	3.05467
18588.659	2.71295	4.68717	5.39819	1.90276
18592.659	2.53273	4.25385	6.36089	-0.15196
18596.659	2.71463	3.23177	6.83139	-0.01929
18600.659	2.87977	3.31283	5.57043	-0.15465
18604.662	3.03316	3.22343	6.27567	-0.40513
18608.640	3.02831	3.15079	5.69190	0.27674
18612.654	3.08416	2.94194	5.61834	0.48032
18616.650	3.08001	2.59887	5.99343	0.14766
18620.616	3.09332	2.66787	5.56932	-0.01392
18624.659	3.37509	2.60450	5.70925	-0.00381
18628.615	3.38929	3.16259	5.74964	-0.37986
18632.652	3.40163	3.09577	5.12587	-0.02643
18636.658	3.17401	3.39926	5.04479	-0.30438
18640.617	3.33700	5.83119	3.77666	-0.41578
18644.661	5.76566	3.25066	4.57828	-0.93869
18648.620	3.32340	5.40339	4.88232	-1.72748
18652.654	3.37509	4.54511	5.13277	-0.96051
18656.659	3.41474	5.28449	5.86015	-1.37761
